Timestamp,OriginalTimestamp,EEG.Counter,EEG.Interpolated,EEG.AF3,EEG.F7,EEG.F3,EEG.FC5,EEG.T7,EEG.P7,EEG.O1,EEG.O2,EEG.P8,EEG.T8,EEG.FC6,EEG.F4,EEG.F8,EEG.AF4,EEG.RawCq,EEG.Battery,EEG.BatteryPercent,MarkerIndex,MarkerType,MarkerValueInt,EEG.MarkerHardware,CQ.AF3,CQ.F7,CQ.F3,CQ.FC5,CQ.T7,CQ.P7,CQ.O1,CQ.O2,CQ.P8,CQ.T8,CQ.FC6,CQ.F4,CQ.F8,CQ.AF4,CQ.Overall,EQ.SampleRateQuality,EQ.OVERALL,EQ.AF3,EQ.F7,EQ.F3,EQ.FC5,EQ.T7,EQ.P7,EQ.O1,EQ.O2,EQ.P8,EQ.T8,EQ.FC6,EQ.F4,EQ.F8,EQ.AF4,POW.AF3.Theta,POW.AF3.Alpha,POW.AF3.BetaL,POW.AF3.BetaH,POW.AF3.Gamma,POW.F7.Theta,POW.F7.Alpha,POW.F7.BetaL,POW.F7.BetaH,POW.F7.Gamma,POW.F3.Theta,POW.F3.Alpha,POW.F3.BetaL,POW.F3.BetaH,POW.F3.Gamma,POW.FC5.Theta,POW.FC5.Alpha,POW.FC5.BetaL,POW.FC5.BetaH,POW.FC5.Gamma,POW.T7.Theta,POW.T7.Alpha,POW.T7.BetaL,POW.T7.BetaH,POW.T7.Gamma,POW.P7.Theta,POW.P7.Alpha,POW.P7.BetaL,POW.P7.BetaH,POW.P7.Gamma,POW.O1.Theta,POW.O1.Alpha,POW.O1.BetaL,POW.O1.BetaH,POW.O1.Gamma,POW.O2.Theta,POW.O2.Alpha,POW.O2.BetaL,POW.O2.BetaH,POW.O2.Gamma,POW.P8.Theta,POW.P8.Alpha,POW.P8.BetaL,POW.P8.BetaH,POW.P8.Gamma,POW.T8.Theta,POW.T8.Alpha,POW.T8.BetaL,POW.T8.BetaH,POW.T8.Gamma,POW.FC6.Theta,POW.FC6.Alpha,POW.FC6.BetaL,POW.FC6.BetaH,POW.FC6.Gamma,POW.F4.Theta,POW.F4.Alpha,POW.F4.BetaL,POW.F4.BetaH,POW.F4.Gamma,POW.F8.Theta,POW.F8.Alpha,POW.F8.BetaL,POW.F8.BetaH,POW.F8.Gamma,POW.AF4.Theta,POW.AF4.Alpha,POW.AF4.BetaL,POW.AF4.BetaH,POW.AF4.Gamma
1738703662.551481,1738703662.553053,28.000000,0.000000,4350.128418,4305.897461,4333.461426,4397.820313,4373.333496,4312.948730,4323.974121,4405.128418,4336.794922,4282.563965,4721.410156,4491.282227,4896.538574,4867.436035,0.000000,2.000000,43.000000,,,,0.000000,4.000000,4.000000,0.000000,4.000000,0.000000,0.000000,0.000000,0.000000,0.000000,0.000000,4.000000,2.000000,4.000000,4.000000,0.000000,,,,,,,,,,,,,,,,,,,,,,,,,,,,,,,,,,,,,,,,,,,,,,,,,,,,,,,,,,,,,,,,,,,,,,,,,,,,,,,,,,,,,,
1738703662.559289,1738703662.560762,29.000000,0.000000,4325.512695,4281.666504,4334.102539,4407.948730,4363.077148,4310.512695,4322.820313,4402.820313,4337.563965,4286.153809,4694.102539,4481.794922,4858.461426,4836.025879,0.000000,2.000000,43.000000,,,,0.000000,4.000000,4.000000,0.000000,4.000000,0.000000,0.000000,0.000000,0.000000,0.000000,0.000000,4.000000,2.000000,4.000000,4.000000,0.000000,,,,,,,,,,,,,,,,,,,,,,,,,,,,,,,,,,,,,,,,,,,,,,,,,,,,,,,,,,,,,,,,,,,,,,,,,,,,,,,,,,,,,,
1738703662.567097,1738703662.568570,30.000000,0.000000,4310.384766,4276.794922,4332.948730,4413.205078,4341.794922,4309.615234,4324.743652,4401.922852,4334.743652,4284.230957,4702.307617,4484.743652,4858.589844,4838.846191,0.000000,2.000000,43.000000,,,,0.000000,4.000000,4.000000,0.000000,4.000000,0.000000,0.000000,0.000000,0.000000,0.000000,0.000000,4.000000,2.000000,4.000000,4.000000,0.000000,,,,,,,,,,,,,,,,,,,,,,,,,,,,,,,,,,,,,,,,,,,,,,,,,,,,,,,,,,,,,,,,,,,,,,,,,,,,,,,,,,,,,,
1738703662.574906,1738703662.576279,31.000000,0.000000,4320.897461,4290.256348,4333.077148,4453.205078,4346.922852,4312.307617,4327.436035,4404.487305,4331.282227,4282.307617,4727.179688,4488.461426,4880.641113,4863.077148,0.000000,2.000000,43.000000,,,,0.000000,4.000000,4.000000,0.000000,4.000000,0.000000,0.000000,0.000000,0.000000,0.000000,0.000000,4.000000,2.000000,4.000000,4.000000,0.000000,,,,,,,,,,,,,,,,,3288.208740,323.556122,67.823700,109.058655,30.870209,2822.014648,427.467194,70.941765,115.151764,34.058247,0.525448,0.371947,0.238607,0.099362,0.143874,10580.253906,912.377808,2400.629883,1438.043579,389.718414,79.290932,16.670074,0.612009,0.749766,0.642463,0.523334,0.121171,0.055319,0.135280,0.040496,5.516805,1.638549,1.322501,0.597584,0.209555,0.205873,0.087302,0.055191,0.059272,0.028466,0.954914,0.318970,0.174647,0.123728,0.079278,0.352619,0.156886,0.010287,0.030356,0.026187,654.654114,126.961945,21.037205,44.536919,14.011694,28.243692,6.020943,1.059704,3.346002,1.217233,3168.509766,500.501526,70.417366,132.835617,36.583702,2388.978271,380.628204,54.293346,106.273521,31.140055
1738703662.582714,1738703662.584087,32.000000,0.000000,4317.179688,4282.563965,4334.615234,4478.974121,4366.666504,4312.692383,4332.307617,4405.128418,4331.666504,4283.974121,4716.282227,4485.384766,4868.717773,4847.051270,0.000000,2.000000,43.000000,,,,0.000000,4.000000,4.000000,0.000000,4.000000,0.000000,0.000000,0.000000,0.000000,0.000000,0.000000,4.000000,2.000000,4.000000,4.000000,0.000000,,,,,,,,,,,,,,,,,,,,,,,,,,,,,,,,,,,,,,,,,,,,,,,,,,,,,,,,,,,,,,,,,,,,,,,,,,,,,,,,,,,,,,
1738703662.590522,1738703662.591796,33.000000,0.000000,4301.922852,4275.512695,4341.666504,4487.948730,4377.692383,4315.000000,4342.692383,4405.128418,4334.102539,4282.948730,4705.256348,4489.358887,4851.794922,4829.230957,0.000000,2.000000,43.000000,,,,0.000000,4.000000,4.000000,0.000000,4.000000,0.000000,0.000000,0.000000,0.000000,0.000000,0.000000,4.000000,2.000000,4.000000,4.000000,0.000000,,,,,,,,,,,,,,,,,,,,,,,,,,,,,,,,,,,,,,,,,,,,,,,,,,,,,,,,,,,,,,,,,,,,,,,,,,,,,,,,,,,,,,
1738703662.598330,1738703662.599604,34.000000,0.000000,4314.743652,4305.512695,4343.974121,4547.692383,4400.256348,4317.051270,4348.205078,4406.153809,4332.307617,4281.410156,4727.563965,4493.077148,4879.230957,4857.563965,0.000000,2.000000,43.000000,,,,0.000000,4.000000,4.000000,0.000000,4.000000,0.000000,0.000000,0.000000,0.000000,0.000000,0.000000,4.000000,2.000000,4.000000,4.000000,0.000000,,,,,,,,,,,,,,,,,,,,,,,,,,,,,,,,,,,,,,,,,,,,,,,,,,,,,,,,,,,,,,,,,,,,,,,,,,,,,,,,,,,,,,
1738703662.606139,1738703662.607313,35.000000,0.000000,4306.153809,4307.563965,4341.538574,4593.974121,4418.333496,4312.692383,4335.769043,4407.820313,4331.794922,4283.333496,4719.102539,4487.948730,4876.794922,4851.282227,0.000000,2.000000,43.000000,,,,0.000000,4.000000,4.000000,0.000000,4.000000,0.000000,0.000000,0.000000,0.000000,0.000000,0.000000,4.000000,2.000000,4.000000,4.000000,0.000000,,,,,,,,,,,,,,,,,,,,,,,,,,,,,,,,,,,,,,,,,,,,,,,,,,,,,,,,,,,,,,,,,,,,,,,,,,,,,,,,,,,,,,
1738703662.613947,1738703662.615121,36.000000,0.000000,4251.666504,4244.487305,4338.077148,4576.922852,4407.051270,4312.436035,4316.922852,4405.769043,4337.307617,4283.589844,4683.333496,4483.717773,4814.102539,4793.846191,0.000000,2.000000,43.000000,,,,0.000000,4.000000,4.000000,0.000000,4.000000,0.000000,0.000000,0.000000,0.000000,0.000000,0.000000,4.000000,2.000000,4.000000,4.000000,0.000000,,,,,,,,,,,,,,,,,,,,,,,,,,,,,,,,,,,,,,,,,,,,,,,,,,,,,,,,,,,,,,,,,,,,,,,,,,,,,,,,,,,,,,
1738703662.621755,1738703662.622830,37.000000,0.000000,4187.563965,4160.512695,4335.384766,4567.563965,4407.948730,4317.563965,4312.051270,4406.282227,4335.769043,4282.307617,4650.128418,4475.384766,4736.410156,4731.410156,0.000000,2.000000,43.000000,,,,0.000000,4.000000,4.000000,0.000000,4.000000,0.000000,0.000000,0.000000,0.000000,0.000000,0.000000,4.000000,2.000000,4.000000,4.000000,0.000000,,,,,,,,,,,,,,,,,,,,,,,,,,,,,,,,,,,,,,,,,,,,,,,,,,,,,,,,,,,,,,,,,,,,,,,,,,,,,,,,,,,,,,
1738703662.629563,1738703662.630638,38.000000,0.000000,4079.743652,4045.384521,4337.563965,4564.615234,4418.589844,4313.717773,4308.589844,4409.230957,4329.615234,4281.922852,4579.230957,4452.948730,4607.436035,4626.666504,0.000000,2.000000,43.000000,,,,0.000000,4.000000,4.000000,0.000000,4.000000,0.000000,0.000000,0.000000,0.000000,0.000000,0.000000,4.000000,2.000000,4.000000,4.000000,0.000000,,,,,,,,,,,,,,,,,,,,,,,,,,,,,,,,,,,,,,,,,,,,,,,,,,,,,,,,,,,,,,,,,,,,,,,,,,,,,,,,,,,,,,
1738703662.637372,1738703662.638347,39.000000,0.000000,3922.564209,3882.307617,4335.128418,4530.641113,4403.974121,4309.743652,4298.333496,4407.948730,4334.102539,4280.897461,4488.205078,4432.692383,4433.205078,4477.307617,0.000000,2.000000,43.000000,,,,0.000000,4.000000,4.000000,0.000000,4.000000,0.000000,0.000000,0.000000,0.000000,0.000000,0.000000,4.000000,2.000000,4.000000,4.000000,0.000000,,,,,,,,,,,,,,,,,,,,,,,,,,,,,,,,,,,,,,,,,,,,,,,,,,,,,,,,,,,,,,,,,,,,,,,,,,,,,,,,,,,,,,
1738703662.645180,1738703662.646255,40.000000,0.000000,3806.153809,3750.512939,4335.256348,4528.589844,4406.410156,4311.794922,4283.974121,4407.307617,4337.436035,4280.641113,4443.333496,4428.717773,4316.282227,4366.538574,0.000000,2.000000,43.000000,,,,0.000000,4.000000,4.000000,0.000000,4.000000,0.000000,0.000000,0.000000,0.000000,0.000000,0.000000,4.000000,2.000000,4.000000,4.000000,0.000000,,,,,,,,,,,,,,,,,,,,,,,,,,,,,,,,,,,,,,,,,,,,,,,,,,,,,,,,,,,,,,,,,,,,,,,,,,,,,,,,,,,,,,
1738703662.652988,1738703662.654064,41.000000,0.000000,3707.435791,3648.974365,4340.897461,4561.025879,4438.205078,4311.922852,4274.871582,4411.025879,4332.692383,4281.282227,4402.948730,4421.025879,4211.282227,4273.205078,0.000000,2.000000,43.000000,,,,0.000000,4.000000,4.000000,0.000000,4.000000,0.000000,0.000000,0.000000,0.000000,0.000000,0.000000,4.000000,2.000000,4.000000,4.000000,0.000000,,,,,,,,,,,,,,,,,,,,,,,,,,,,,,,,,,,,,,,,,,,,,,,,,,,,,,,,,,,,,,,,,,,,,,,,,,,,,,,,,,,,,,
1738703662.660796,1738703662.661972,42.000000,0.000000,3560.897461,3509.358887,4349.230957,4591.153809,4426.922852,4314.871582,4283.846191,4408.589844,4332.563965,4280.641113,4328.974121,4403.461426,4051.281982,4144.871582,0.000000,2.000000,43.000000,,,,0.000000,4.000000,4.000000,0.000000,4.000000,0.000000,0.000000,0.000000,0.000000,0.000000,0.000000,4.000000,2.000000,4.000000,4.000000,0.000000,,,,,,,,,,,,,,,,,,,,,,,,,,,,,,,,,,,,,,,,,,,,,,,,,,,,,,,,,,,,,,,,,,,,,,,,,,,,,,,,,,,,,,
1738703662.668605,1738703662.669781,43.000000,0.000000,3443.333252,3381.410156,4347.436035,4658.846191,4357.307617,4318.461426,4288.333496,4402.692383,4336.538574,4278.717773,4283.974121,4392.179688,3936.666748,4044.230713,0.000000,2.000000,43.000000,,,,0.000000,4.000000,4.000000,0.000000,4.000000,0.000000,0.000000,0.000000,0.000000,0.000000,0.000000,4.000000,2.000000,4.000000,4.000000,0.000000,,,,,,,,,,,,,,,,,,,,,,,,,,,,,,,,,,,,,,,,,,,,,,,,,,,,,,,,,,,,,,,,,,,,,,,,,,,,,,,,,,,,,,
1738703662.676413,1738703662.677589,44.000000,0.000000,3378.205078,3305.128174,4344.743652,4708.846191,4294.743652,4311.794922,4256.666504,4402.948730,4334.358887,4279.743652,4265.641113,4391.282227,3870.384521,3978.974365,0.000000,2.000000,43.000000,,,,0.000000,4.000000,4.000000,0.000000,4.000000,0.000000,0.000000,0.000000,0.000000,0.000000,0.000000,4.000000,2.000000,4.000000,4.000000,0.000000,,,,,,,,,,,,,,,,,,,,,,,,,,,,,,,,,,,,,,,,,,,,,,,,,,,,,,,,,,,,,,,,,,,,,,,,,,,,,,,,,,,,,,
1738703662.684221,1738703662.685297,45.000000,0.000000,3314.358887,3245.384521,4339.615234,4694.743652,4277.820313,4305.000000,4221.666504,4406.410156,4331.282227,4282.436035,4241.794922,4391.153809,3793.846191,3921.410156,0.000000,2.000000,43.000000,,,,0.000000,4.000000,4.000000,0.000000,4.000000,0.000000,0.000000,0.000000,0.000000,0.000000,0.000000,4.000000,2.000000,4.000000,4.000000,0.000000,,,,,,,,,,,,,,,,,,,,,,,,,,,,,,,,,,,,,,,,,,,,,,,,,,,,,,,,,,,,,,,,,,,,,,,,,,,,,,,,,,,,,,
1738703662.692029,1738703662.693106,46.000000,0.000000,3266.538574,3196.410156,4338.077148,4695.128418,4286.282227,4306.025879,4228.205078,4405.384766,4334.358887,4276.025879,4225.000000,4390.384766,3741.410156,3887.564209,0.000000,2.000000,43.000000,,,,0.000000,4.000000,4.000000,0.000000,4.000000,0.000000,0.000000,0.000000,0.000000,0.000000,0.000000,4.000000,2.000000,4.000000,4.000000,0.000000,,,,,,,,,,,,,,,,,,,,,,,,,,,,,,,,,,,,,,,,,,,,,,,,,,,,,,,,,,,,,,,,,,,,,,,,,,,,,,,,,,,,,,
1738703662.699838,1738703662.700814,47.000000,0.000000,3214.358887,3141.923096,4334.102539,4692.179688,4262.563965,4304.230957,4251.282227,4404.871582,4335.512695,4269.871582,4203.717773,4383.717773,3696.794922,3844.615479,0.000000,2.000000,43.000000,,,,0.000000,4.000000,4.000000,0.000000,4.000000,0.000000,0.000000,0.000000,0.000000,0.000000,0.000000,4.000000,2.000000,4.000000,4.000000,0.000000,1.000000,0.000000,0.000000,0.000000,0.000000,0.000000,0.000000,0.000000,0.000000,0.000000,0.000000,0.000000,0.000000,2.000000,0.000000,0.000000,2342.393311,248.873962,53.681339,78.186577,23.062021,2021.305054,332.514709,56.211952,82.043930,25.493746,0.522976,0.406602,0.172035,0.082869,0.112433,8072.416504,707.829285,1747.870605,1023.118042,279.729523,57.162457,12.370615,0.743975,0.586464,0.500095,0.389771,0.097707,0.058956,0.103012,0.038261,4.611153,1.704676,1.741311,0.622705,0.220804,0.154789,0.071870,0.054713,0.061218,0.025761,0.952932,0.348324,0.204808,0.133739,0.077845,0.245747,0.113436,0.009432,0.023009,0.021566,461.903656,96.159363,16.179174,31.958286,10.580189,20.092461,4.816364,0.851763,2.422789,0.907775,2241.617188,375.841858,54.784714,95.224075,27.516220,1693.329712,285.319092,42.957253,75.635132,23.021839
1738703662.707646,1738703662.708622,48.000000,0.000000,3107.051270,3038.589844,4332.051270,4626.025879,4240.512695,4296.666504,4248.846191,4406.025879,4333.077148,4276.410156,4156.538574,4370.128418,3598.589844,3753.333252,0.000000,2.000000,43.000000,,,,0.000000,4.000000,4.000000,0.000000,4.000000,0.000000,0.000000,0.000000,0.000000,0.000000,0.000000,4.000000,2.000000,4.000000,4.000000,0.000000,,,,,,,,,,,,,,,,,,,,,,,,,,,,,,,,,,,,,,,,,,,,,,,,,,,,,,,,,,,,,,,,,,,,,,,,,,,,,,,,,,,,,,
1738703662.715454,1738703662.716330,49.000000,0.000000,3042.692383,2974.102539,4328.205078,4599.743652,4272.948730,4293.461426,4236.538574,4405.512695,4333.205078,4282.436035,4138.717773,4368.077148,3534.487061,3703.974365,0.000000,2.000000,43.000000,,,,0.000000,4.000000,4.000000,0.000000,4.000000,0.000000,0.000000,0.000000,0.000000,0.000000,0.000000,4.000000,2.000000,4.000000,4.000000,0.000000,,,,,,,,,,,,,,,,,,,,,,,,,,,,,,,,,,,,,,,,,,,,,,,,,,,,,,,,,,,,,,,,,,,,,,,,,,,,,,,,,,,,,,
1738703662.723262,1738703662.724239,50.000000,0.000000,3078.846191,3002.564209,4322.948730,4641.282227,4291.153809,4291.282227,4248.846191,4405.256348,4334.871582,4276.666504,4169.615234,4380.384766,3561.025635,3739.871826,0.000000,2.000000,43.000000,,,,0.000000,4.000000,4.000000,0.000000,4.000000,0.000000,0.000000,0.000000,0.000000,0.000000,0.000000,4.000000,2.000000,4.000000,4.000000,0.000000,,,,,,,,,,,,,,,,,,,,,,,,,,,,,,,,,,,,,,,,,,,,,,,,,,,,,,,,,,,,,,,,,,,,,,,,,,,,,,,,,,,,,,
1738703662.731071,1738703662.732047,51.000000,0.000000,3082.307617,2999.230713,4317.051270,4651.666504,4267.948730,4286.794922,4268.205078,4405.641113,4333.461426,4269.230957,4167.436035,4381.794922,3554.871826,3740.769287,0.000000,2.000000,43.000000,,,,0.000000,4.000000,4.000000,0.000000,4.000000,0.000000,0.000000,0.000000,0.000000,0.000000,0.000000,4.000000,2.000000,4.000000,4.000000,0.000000,,,,,,,,,,,,,,,,,,,,,,,,,,,,,,,,,,,,,,,,,,,,,,,,,,,,,,,,,,,,,,,,,,,,,,,,,,,,,,,,,,,,,,
1738703662.738879,1738703662.739955,52.000000,0.000000,3018.333252,2935.128174,4316.666504,4645.128418,4252.692383,4286.025879,4266.282227,4405.256348,4334.230957,4272.179688,4130.641113,4370.128418,3491.025635,3679.358887,0.000000,2.000000,43.000000,,,,0.000000,4.000000,4.000000,0.000000,4.000000,0.000000,0.000000,0.000000,0.000000,0.000000,0.000000,4.000000,2.000000,4.000000,4.000000,0.000000,,,,,,,,,,,,,,,,,,,,,,,,,,,,,,,,,,,,,,,,,,,,,,,,,,,,,,,,,,,,,,,,,,,,,,,,,,,,,,,,,,,,,,
1738703662.746687,1738703662.747764,53.000000,0.000000,2990.769287,2910.641113,4318.974121,4659.615234,4236.794922,4291.794922,4255.512695,4404.230957,4336.025879,4278.077148,4124.230957,4368.589844,3465.512939,3650.128174,0.000000,2.000000,43.000000,,,,0.000000,4.000000,4.000000,0.000000,4.000000,0.000000,0.000000,0.000000,0.000000,0.000000,0.000000,4.000000,2.000000,4.000000,4.000000,0.000000,,,,,,,,,,,,,,,,,,,,,,,,,,,,,,,,,,,,,,,,,,,,,,,,,,,,,,,,,,,,,,,,,,,,,,,,,,,,,,,,,,,,,,
1738703662.754496,1738703662.755472,54.000000,0.000000,2969.102539,2887.820557,4315.769043,4638.717773,4229.102539,4298.974121,4241.025879,4404.871582,4334.358887,4276.538574,4115.769043,4368.205078,3447.820557,3631.666748,0.000000,2.000000,43.000000,,,,0.000000,4.000000,4.000000,0.000000,4.000000,0.000000,0.000000,0.000000,0.000000,0.000000,0.000000,4.000000,2.000000,4.000000,4.000000,0.000000,,,,,,,,,,,,,,,,,,,,,,,,,,,,,,,,,,,,,,,,,,,,,,,,,,,,,,,,,,,,,,,,,,,,,,,,,,,,,,,,,,,,,,
1738703662.762304,1738703662.763281,55.000000,0.000000,2933.589844,2845.512939,4316.538574,4610.897461,4251.922852,4301.153809,4214.358887,4404.743652,4334.487305,4274.615234,4098.205078,4365.897461,3420.384521,3607.948730,0.000000,2.000000,43.000000,,,,0.000000,4.000000,4.000000,0.000000,4.000000,0.000000,0.000000,0.000000,0.000000,0.000000,0.000000,4.000000,2.000000,4.000000,4.000000,0.000000,,,,,,,,,,,,,,,,,,,,,,,,,,,,,,,,,,,,,,,,,,,,,,,,,,,,,,,,,,,,,,,,,,,,,,,,,,,,,,,,,,,,,,
1738703662.770112,1738703662.770989,56.000000,0.000000,3012.948730,2923.333252,4317.436035,4679.102539,4253.717773,4298.974121,4214.487305,4405.256348,4334.358887,4280.000000,4152.307617,4380.769043,3497.307617,3682.564209,0.000000,2.000000,43.000000,,,,0.000000,4.000000,4.000000,0.000000,4.000000,0.000000,0.000000,0.000000,0.000000,0.000000,0.000000,4.000000,2.000000,4.000000,4.000000,0.000000,,,,,,,,,,,,,,,,,,,,,,,,,,,,,,,,,,,,,,,,,,,,,,,,,,,,,,,,,,,,,,,,,,,,,,,,,,,,,,,,,,,,,,
1738703662.777920,1738703662.778798,57.000000,0.000000,3150.769287,3062.051270,4316.794922,4776.410156,4247.179688,4297.051270,4232.820313,4403.589844,4329.615234,4282.051270,4233.461426,4399.615234,3637.435791,3808.846191,0.000000,2.000000,43.000000,,,,0.000000,4.000000,4.000000,0.000000,4.000000,0.000000,0.000000,0.000000,0.000000,0.000000,0.000000,4.000000,2.000000,4.000000,4.000000,0.000000,,,,,,,,,,,,,,,,,,,,,,,,,,,,,,,,,,,,,,,,,,,,,,,,,,,,,,,,,,,,,,,,,,,,,,,,,,,,,,,,,,,,,,
1738703662.785729,1738703662.786506,58.000000,0.000000,3172.564209,3078.205078,4309.743652,4781.794922,4274.743652,4302.563965,4225.000000,4401.794922,4329.871582,4277.563965,4239.615234,4395.256348,3678.461426,3836.153809,0.000000,2.000000,43.000000,,,,0.000000,4.000000,4.000000,0.000000,4.000000,0.000000,0.000000,0.000000,0.000000,0.000000,0.000000,4.000000,2.000000,4.000000,4.000000,0.000000,,,,,,,,,,,,,,,,,,,,,,,,,,,,,,,,,,,,,,,,,,,,,,,,,,,,,,,,,,,,,,,,,,,,,,,,,,,,,,,,,,,,,,
1738703662.793537,1738703662.794315,59.000000,0.000000,3188.974365,3097.179443,4312.820313,4777.563965,4301.666504,4306.153809,4213.077148,4403.589844,4334.358887,4278.589844,4243.333496,4396.666504,3700.512939,3848.974365,0.000000,2.000000,43.000000,,,,0.000000,4.000000,4.000000,0.000000,4.000000,0.000000,0.000000,0.000000,0.000000,0.000000,0.000000,4.000000,2.000000,4.000000,4.000000,0.000000,,,,,,,,,,,,,,,,,,,,,,,,,,,,,,,,,,,,,,,,,,,,,,,,,,,,,,,,,,,,,,,,,,,,,,,,,,,,,,,,,,,,,,
1738703662.801345,1738703662.802023,60.000000,0.000000,3336.025635,3258.076904,4314.358887,4845.000000,4311.410156,4304.102539,4222.563965,4406.153809,4333.846191,4281.794922,4321.410156,4418.589844,3840.128174,3977.564209,0.000000,2.000000,43.000000,,,,0.000000,4.000000,4.000000,0.000000,4.000000,0.000000,0.000000,0.000000,0.000000,0.000000,0.000000,4.000000,2.000000,4.000000,4.000000,0.000000,,,,,,,,,,,,,,,,,,,,,,,,,,,,,,,,,,,,,,,,,,,,,,,,,,,,,,,,,,,,,,,,,,,,,,,,,,,,,,,,,,,,,,
1738703662.809153,1738703662.809832,61.000000,0.000000,3457.948730,3378.333252,4311.922852,4892.179688,4284.487305,4306.025879,4226.025879,4405.641113,4328.846191,4281.282227,4379.102539,4427.436035,3973.718018,4094.871826,0.000000,2.000000,43.000000,,,,0.000000,4.000000,4.000000,0.000000,4.000000,0.000000,0.000000,0.000000,0.000000,0.000000,0.000000,4.000000,2.000000,4.000000,4.000000,0.000000,,,,,,,,,,,,,,,,,,,,,,,,,,,,,,,,,,,,,,,,,,,,,,,,,,,,,,,,,,,,,,,,,,,,,,,,,,,,,,,,,,,,,,
1738703662.816962,1738703662.817540,62.000000,0.000000,3465.384521,3370.128174,4308.717773,4880.641113,4271.666504,4310.384766,4220.897461,4404.615234,4329.615234,4281.794922,4373.589844,4420.512695,3995.641113,4104.871582,0.000000,2.000000,43.000000,,,,0.000000,4.000000,4.000000,0.000000,4.000000,0.000000,0.000000,0.000000,0.000000,0.000000,0.000000,4.000000,2.000000,4.000000,4.000000,0.000000,,,,,,,,,,,,,,,,,,,,,,,,,,,,,,,,,,,,,,,,,,,,,,,,,,,,,,,,,,,,,,,,,,,,,,,,,,,,,,,,,,,,,,
1738703662.824770,1738703662.825349,63.000000,0.000000,3508.205078,3407.051270,4310.384766,4908.205078,4281.666504,4311.922852,4228.974121,4405.256348,4333.717773,4282.307617,4391.025879,4430.000000,4034.871826,4141.153809,0.000000,2.000000,43.000000,,,,0.000000,4.000000,4.000000,0.000000,4.000000,0.000000,0.000000,0.000000,0.000000,0.000000,0.000000,4.000000,2.000000,4.000000,4.000000,0.000000,,,,,,,,,,,,,,,,,1400.544922,177.026855,40.028828,47.483894,14.948989,1234.795654,237.116898,41.386963,49.197865,16.576990,0.495488,0.431059,0.112688,0.067319,0.080088,5146.805176,473.418152,1049.793457,595.261414,165.268127,34.632648,8.145991,0.961144,0.441492,0.376803,0.273342,0.089132,0.061770,0.070710,0.035531,3.425166,1.763424,2.035883,0.623955,0.220948,0.106149,0.055842,0.050482,0.061071,0.023294,0.911710,0.357397,0.221601,0.136995,0.075058,0.144434,0.069788,0.009394,0.015980,0.016395,278.384796,65.836823,11.664802,19.420393,7.003541,12.362818,3.632774,0.660717,1.493314,0.589857,1356.347778,252.711746,40.199680,57.820332,18.048262,1024.789307,192.291229,32.222656,45.226665,14.630728
1738703662.832578,1738703662.833057,64.000000,0.000000,3616.666748,3525.769287,4306.922852,4978.461426,4210.128418,4311.538574,4232.051270,4407.051270,4334.487305,4283.077148,4443.461426,4447.692383,4148.077148,4244.358887,0.000000,2.000000,43.000000,,,,0.000000,4.000000,4.000000,0.000000,4.000000,0.000000,0.000000,0.000000,0.000000,0.000000,0.000000,4.000000,2.000000,4.000000,4.000000,0.000000,,,,,,,,,,,,,,,,,,,,,,,,,,,,,,,,,,,,,,,,,,,,,,,,,,,,,,,,,,,,,,,,,,,,,,,,,,,,,,,,,,,,,,
1738703662.840386,1738703662.840866,65.000000,0.000000,3691.410156,3603.333252,4304.743652,5034.743652,4127.692383,4309.230957,4228.717773,4407.820313,4332.692383,4283.974121,4476.666504,4451.282227,4235.128418,4314.487305,4487.000000,2.000000,43.000000,,,,0.000000,4.000000,4.000000,0.000000,4.000000,0.000000,0.000000,0.000000,0.000000,0.000000,0.000000,4.000000,2.000000,4.000000,4.000000,0.000000,,,,,,,,,,,,,,,,,,,,,,,,,,,,,,,,,,,,,,,,,,,,,,,,,,,,,,,,,,,,,,,,,,,,,,,,,,,,,,,,,,,,,,
1738703662.848195,1738703662.848574,66.000000,0.000000,3735.769287,3636.153809,4303.333496,5075.384766,4143.077148,4305.512695,4232.307617,4405.000000,4332.820313,4284.102539,4491.922852,4451.025879,4278.974121,4349.615234,5744.000000,2.000000,43.000000,,,,0.000000,4.000000,4.000000,0.000000,4.000000,0.000000,0.000000,0.000000,0.000000,0.000000,0.000000,4.000000,2.000000,4.000000,4.000000,0.000000,,,,,,,,,,,,,,,,,,,,,,,,,,,,,,,,,,,,,,,,,,,,,,,,,,,,,,,,,,,,,,,,,,,,,,,,,,,,,,,,,,,,,,
1738703662.856003,1738703662.856483,67.000000,0.000000,3786.666748,3684.615479,4302.563965,5108.717773,4169.615234,4306.410156,4232.820313,4405.384766,4335.512695,4283.077148,4504.615234,4456.410156,4322.820313,4390.897461,5973.000000,2.000000,43.000000,,,,0.000000,4.000000,4.000000,0.000000,4.000000,0.000000,0.000000,0.000000,0.000000,0.000000,0.000000,4.000000,2.000000,4.000000,4.000000,0.000000,,,,,,,,,,,,,,,,,,,,,,,,,,,,,,,,,,,,,,,,,,,,,,,,,,,,,,,,,,,,,,,,,,,,,,,,,,,,,,,,,,,,,,
1738703662.863811,1738703662.864291,68.000000,0.000000,3804.615479,3695.128174,4304.102539,5108.589844,4166.025879,4307.563965,4235.000000,4408.205078,4336.666504,4283.589844,4497.563965,4452.948730,4342.179688,4402.692383,0.000000,2.000000,43.000000,,,,0.000000,4.000000,4.000000,0.000000,4.000000,0.000000,0.000000,0.000000,0.000000,0.000000,0.000000,4.000000,2.000000,4.000000,4.000000,0.000000,,,,,,,,,,,,,,,,,,,,,,,,,,,,,,,,,,,,,,,,,,,,,,,,,,,,,,,,,,,,,,,,,,,,,,,,,,,,,,,,,,,,,,
1738703662.871619,1738703662.872199,69.000000,0.000000,3778.461426,3651.281982,4304.487305,5068.461426,4183.717773,4306.538574,4247.563965,4406.538574,4335.897461,4285.897461,4473.717773,4442.436035,4317.051270,4378.589844,0.000000,2.000000,43.000000,,,,0.000000,4.000000,4.000000,0.000000,4.000000,0.000000,0.000000,0.000000,0.000000,0.000000,0.000000,4.000000,2.000000,4.000000,4.000000,0.000000,,,,,,,,,,,,,,,,,,,,,,,,,,,,,,,,,,,,,,,,,,,,,,,,,,,,,,,,,,,,,,,,,,,,,,,,,,,,,,,,,,,,,,
1738703662.879428,1738703662.880008,70.000000,0.000000,3762.307617,3631.794922,4306.410156,5038.077148,4190.000000,4308.077148,4246.025879,4404.102539,4336.153809,4287.692383,4459.230957,4440.897461,4289.743652,4366.025879,0.000000,2.000000,43.000000,,,,0.000000,4.000000,4.000000,0.000000,4.000000,0.000000,0.000000,0.000000,0.000000,0.000000,0.000000,4.000000,2.000000,4.000000,4.000000,0.000000,,,,,,,,,,,,,,,,,,,,,,,,,,,,,,,,,,,,,,,,,,,,,,,,,,,,,,,,,,,,,,,,,,,,,,,,,,,,,,,,,,,,,,
1738703662.887236,1738703662.887916,71.000000,0.000000,3754.358887,3623.461426,4306.153809,5026.666504,4187.051270,4310.128418,4232.820313,4406.922852,4337.820313,4286.153809,4452.692383,4441.282227,4277.563965,4361.666504,0.000000,2.000000,43.000000,,,,0.000000,4.000000,4.000000,0.000000,4.000000,0.000000,0.000000,0.000000,0.000000,0.000000,0.000000,4.000000,2.000000,4.000000,4.000000,0.000000,,,,,,,,,,,,,,,,,,,,,,,,,,,,,,,,,,,,,,,,,,,,,,,,,,,,,,,,,,,,,,,,,,,,,,,,,,,,,,,,,,,,,,
1738703662.895044,1738703662.895725,72.000000,0.000000,3738.076904,3588.846191,4304.615234,4996.666504,4200.512695,4311.282227,4232.179688,4407.179688,4338.589844,4281.794922,4440.000000,4435.256348,4261.538574,4348.461426,0.000000,2.000000,43.000000,,,,0.000000,4.000000,4.000000,0.000000,4.000000,0.000000,0.000000,0.000000,0.000000,0.000000,0.000000,4.000000,2.000000,4.000000,4.000000,0.000000,,,,,,,,,,,,,,,,,,,,,,,,,,,,,,,,,,,,,,,,,,,,,,,,,,,,,,,,,,,,,,,,,,,,,,,,,,,,,,,,,,,,,,
1738703662.902852,1738703662.903633,73.000000,0.000000,3730.000000,3569.487061,4301.025879,4953.974121,4187.436035,4312.436035,4236.666504,4404.743652,4336.922852,4280.000000,4418.846191,4429.871582,4226.025879,4329.487305,0.000000,2.000000,43.000000,,,,0.000000,4.000000,4.000000,0.000000,4.000000,0.000000,0.000000,0.000000,0.000000,0.000000,0.000000,4.000000,2.000000,4.000000,4.000000,0.000000,,,,,,,,,,,,,,,,,,,,,,,,,,,,,,,,,,,,,,,,,,,,,,,,,,,,,,,,,,,,,,,,,,,,,,,,,,,,,,,,,,,,,,
1738703662.910661,1738703662.911441,74.000000,0.000000,3747.051270,3593.718018,4305.128418,4962.563965,4174.743652,4312.820313,4232.307617,4406.153809,4334.230957,4281.282227,4413.846191,4438.205078,4202.436035,4332.948730,6050.000000,2.000000,43.000000,,,,0.000000,4.000000,4.000000,0.000000,4.000000,0.000000,0.000000,0.000000,0.000000,0.000000,0.000000,4.000000,2.000000,4.000000,4.000000,0.000000,,,,,,,,,,,,,,,,,,,,,,,,,,,,,,,,,,,,,,,,,,,,,,,,,,,,,,,,,,,,,,,,,,,,,,,,,,,,,,,,,,,,,,
1738703662.918469,1738703662.919350,75.000000,0.000000,3785.641113,3625.128174,4306.538574,5010.000000,4186.282227,4315.000000,4233.717773,4408.846191,4332.436035,4281.538574,4437.563965,4447.820313,4233.846191,4378.333496,5679.000000,2.000000,43.000000,,,,0.000000,4.000000,4.000000,0.000000,4.000000,0.000000,0.000000,0.000000,0.000000,0.000000,0.000000,4.000000,2.000000,4.000000,4.000000,0.000000,,,,,,,,,,,,,,,,,,,,,,,,,,,,,,,,,,,,,,,,,,,,,,,,,,,,,,,,,,,,,,,,,,,,,,,,,,,,,,,,,,,,,,
1738703662.926277,1738703662.927158,76.000000,0.000000,3814.615479,3632.692383,4310.769043,5008.974121,4205.897461,4319.615234,4240.000000,4408.333496,4335.256348,4280.641113,4445.384766,4448.205078,4263.589844,4410.769043,3847.000000,2.000000,43.000000,,,,0.000000,4.000000,4.000000,0.000000,4.000000,0.000000,0.000000,0.000000,0.000000,0.000000,0.000000,4.000000,2.000000,4.000000,4.000000,0.000000,,,,,,,,,,,,,,,,,,,,,,,,,,,,,,,,,,,,,,,,,,,,,,,,,,,,,,,,,,,,,,,,,,,,,,,,,,,,,,,,,,,,,,
1738703662.934085,1738703662.935067,77.000000,0.000000,3818.461426,3627.820557,4313.333496,4978.461426,4220.256348,4321.666504,4238.205078,4412.051270,4337.436035,4281.282227,4427.563965,4446.153809,4246.410156,4397.307617,706.000000,2.000000,43.000000,,,,0.000000,4.000000,4.000000,0.000000,4.000000,0.000000,0.000000,0.000000,0.000000,0.000000,0.000000,4.000000,2.000000,4.000000,4.000000,0.000000,,,,,,,,,,,,,,,,,,,,,,,,,,,,,,,,,,,,,,,,,,,,,,,,,,,,,,,,,,,,,,,,,,,,,,,,,,,,,,,,,,,,,,
1738703662.941894,1738703662.942875,78.000000,0.000000,3807.179443,3624.230713,4309.743652,4979.487305,4208.333496,4320.256348,4234.743652,4416.666504,4335.897461,4282.051270,4417.692383,4442.563965,4218.589844,4378.717773,6050.000000,2.000000,43.000000,,,,0.000000,4.000000,4.000000,0.000000,4.000000,0.000000,0.000000,0.000000,0.000000,0.000000,0.000000,4.000000,2.000000,4.000000,4.000000,0.000000,,,,,,,,,,,,,,,,,,,,,,,,,,,,,,,,,,,,,,,,,,,,,,,,,,,,,,,,,,,,,,,,,,,,,,,,,,,,,,,,,,,,,,
1738703662.949702,1738703662.950783,79.000000,0.000000,3798.974365,3623.076904,4301.153809,4984.102539,4198.461426,4322.307617,4241.794922,4412.820313,4339.358887,4281.666504,4415.256348,4436.282227,4203.077148,4374.871582,5679.000000,2.000000,43.000000,,,,0.000000,4.000000,4.000000,0.000000,4.000000,0.000000,0.000000,0.000000,0.000000,0.000000,0.000000,4.000000,2.000000,4.000000,4.000000,0.000000,,,,,,,,,,,,,,,,,712.795044,127.240166,29.736559,24.527761,8.672372,682.386780,167.818466,30.110107,24.712013,9.671894,0.437148,0.432027,0.073979,0.056393,0.054829,2636.790771,271.474548,494.919250,266.250458,76.467918,18.545074,5.225808,1.269042,0.385600,0.307606,0.192610,0.084868,0.062607,0.045309,0.031957,2.267569,1.730776,2.134988,0.594222,0.214697,0.070635,0.042064,0.043654,0.058940,0.021516,0.818183,0.333280,0.214336,0.129734,0.070671,0.078243,0.037459,0.010331,0.011217,0.012740,151.953949,43.896423,8.569245,10.074173,4.226614,7.083473,2.770724,0.531779,0.791431,0.349752,741.377258,164.053650,30.112148,29.932508,10.673451,558.566467,126.181091,24.463776,22.600458,8.177395
1738703662.957510,1738703662.958592,80.000000,0.000000,3798.589844,3628.846191,4305.897461,4964.871582,4215.384766,4325.641113,4256.153809,4410.641113,4340.128418,4281.666504,4409.230957,4441.025879,4196.666504,4369.743652,3847.000000,2.000000,43.000000,,,,0.000000,4.000000,4.000000,0.000000,4.000000,0.000000,0.000000,0.000000,0.000000,0.000000,0.000000,4.000000,2.000000,4.000000,4.000000,0.000000,,,,,,,,,,,,,,,,,,,,,,,,,,,,,,,,,,,,,,,,,,,,,,,,,,,,,,,,,,,,,,,,,,,,,,,,,,,,,,,,,,,,,,
1738703662.965319,1738703662.966300,81.000000,0.000000,3801.538574,3650.512939,4306.666504,4951.538574,4225.000000,4325.256348,4255.256348,4411.153809,4333.077148,4281.794922,4415.128418,4440.641113,4205.000000,4364.871582,706.000000,2.000000,43.000000,,,,0.000000,4.000000,4.000000,0.000000,4.000000,0.000000,0.000000,0.000000,0.000000,0.000000,0.000000,4.000000,2.000000,4.000000,4.000000,0.000000,,,,,,,,,,,,,,,,,,,,,,,,,,,,,,,,,,,,,,,,,,,,,,,,,,,,,,,,,,,,,,,,,,,,,,,,,,,,,,,,,,,,,,
1738703662.973127,1738703662.974109,82.000000,0.000000,3786.410156,3661.410156,4311.538574,4932.820313,4212.948730,4328.461426,4255.384766,4411.538574,4332.948730,4281.538574,4420.897461,4432.563965,4199.487305,4346.922852,6050.000000,2.000000,43.000000,,,,0.000000,4.000000,4.000000,0.000000,4.000000,0.000000,0.000000,0.000000,0.000000,0.000000,0.000000,4.000000,2.000000,4.000000,4.000000,0.000000,,,,,,,,,,,,,,,,,,,,,,,,,,,,,,,,,,,,,,,,,,,,,,,,,,,,,,,,,,,,,,,,,,,,,,,,,,,,,,,,,,,,,,
1738703662.980935,1738703662.981817,83.000000,0.000000,3773.333252,3673.589844,4312.948730,4918.077148,4204.102539,4332.820313,4259.615234,4408.846191,4338.846191,4281.282227,4415.128418,4431.538574,4190.512695,4328.974121,5679.000000,2.000000,43.000000,,,,0.000000,4.000000,4.000000,0.000000,4.000000,0.000000,0.000000,0.000000,0.000000,0.000000,0.000000,4.000000,2.000000,4.000000,4.000000,0.000000,,,,,,,,,,,,,,,,,,,,,,,,,,,,,,,,,,,,,,,,,,,,,,,,,,,,,,,,,,,,,,,,,,,,,,,,,,,,,,,,,,,,,,
1738703662.988743,1738703662.989626,84.000000,0.000000,3783.589844,3701.281982,4309.230957,4925.641113,4209.102539,4336.410156,4257.307617,4409.230957,4339.615234,4282.307617,4420.641113,4439.358887,4215.128418,4337.051270,3847.000000,2.000000,43.000000,,,,0.000000,4.000000,4.000000,0.000000,4.000000,0.000000,0.000000,0.000000,0.000000,0.000000,0.000000,4.000000,2.000000,4.000000,4.000000,0.000000,,,,,,,,,,,,,,,,,,,,,,,,,,,,,,,,,,,,,,,,,,,,,,,,,,,,,,,,,,,,,,,,,,,,,,,,,,,,,,,,,,,,,,
1738703662.996552,1738703662.997334,85.000000,0.000000,3798.974365,3732.692383,4305.256348,4944.615234,4219.102539,4337.051270,4255.384766,4409.487305,4335.256348,4281.538574,4441.794922,4437.436035,4245.512695,4350.769043,706.000000,2.000000,43.000000,,,,0.000000,4.000000,4.000000,0.000000,4.000000,0.000000,0.000000,0.000000,0.000000,0.000000,0.000000,4.000000,2.000000,4.000000,4.000000,0.000000,,,,,,,,,,,,,,,,,,,,,,,,,,,,,,,,,,,,,,,,,,,,,,,,,,,,,,,,,,,,,,,,,,,,,,,,,,,,,,,,,,,,,,
1738703663.004360,1738703663.005143,86.000000,0.000000,3841.025635,3798.974365,4310.512695,5003.974121,4235.897461,4333.846191,4267.948730,4412.051270,4335.000000,4280.641113,4475.512695,4443.333496,4289.871582,4380.641113,6050.000000,2.000000,43.000000,,,,0.000000,4.000000,4.000000,0.000000,4.000000,0.000000,0.000000,0.000000,0.000000,0.000000,0.000000,4.000000,2.000000,4.000000,4.000000,0.000000,,,,,,,,,,,,,,,,,,,,,,,,,,,,,,,,,,,,,,,,,,,,,,,,,,,,,,,,,,,,,,,,,,,,,,,,,,,,,,,,,,,,,,
1738703663.012168,1738703663.012851,87.000000,0.000000,3892.564209,3867.051270,4309.871582,5057.307617,4241.282227,4327.820313,4273.205078,4412.051270,4337.179688,4285.512695,4501.282227,4453.333496,4358.333496,4426.282227,5679.000000,2.000000,43.000000,,,,0.000000,4.000000,4.000000,0.000000,4.000000,0.000000,0.000000,0.000000,0.000000,0.000000,0.000000,4.000000,2.000000,4.000000,4.000000,0.000000,,,,,,,,,,,,,,,,,,,,,,,,,,,,,,,,,,,,,,,,,,,,,,,,,,,,,,,,,,,,,,,,,,,,,,,,,,,,,,,,,,,,,,
1738703663.019976,1738703663.020760,88.000000,0.000000,3867.564209,3842.179443,4301.025879,5022.563965,4202.436035,4322.948730,4267.179688,4409.487305,4335.512695,4289.102539,4486.282227,4442.436035,4359.487305,4408.333496,3847.000000,2.000000,43.000000,,,,0.000000,4.000000,4.000000,0.000000,4.000000,0.000000,0.000000,0.000000,0.000000,0.000000,0.000000,4.000000,2.000000,4.000000,4.000000,0.000000,,,,,,,,,,,,,,,,,,,,,,,,,,,,,,,,,,,,,,,,,,,,,,,,,,,,,,,,,,,,,,,,,,,,,,,,,,,,,,,,,,,,,,
1738703663.027785,1738703663.028568,89.000000,0.000000,3801.666748,3776.794922,4307.948730,4968.974121,4162.436035,4323.461426,4269.871582,4411.794922,4335.641113,4285.256348,4461.282227,4435.897461,4304.487305,4345.897461,706.000000,2.000000,43.000000,,,,0.000000,4.000000,4.000000,0.000000,4.000000,0.000000,0.000000,0.000000,0.000000,0.000000,0.000000,4.000000,2.000000,4.000000,4.000000,0.000000,,,,,,,,,,,,,,,,,,,,,,,,,,,,,,,,,,,,,,,,,,,,,,,,,,,,,,,,,,,,,,,,,,,,,,,,,,,,,,,,,,,,,,
1738703663.035593,1738703663.036476,90.000000,0.000000,3775.512939,3760.256348,4309.102539,4965.128418,4172.563965,4325.384766,4276.153809,4417.051270,4338.974121,4282.051270,4453.205078,4437.051270,4285.384766,4321.538574,6050.000000,2.000000,43.000000,,,,0.000000,4.000000,4.000000,0.000000,4.000000,0.000000,0.000000,0.000000,0.000000,0.000000,0.000000,4.000000,2.000000,4.000000,4.000000,0.000000,,,,,,,,,,,,,,,,,,,,,,,,,,,,,,,,,,,,,,,,,,,,,,,,,,,,,,,,,,,,,,,,,,,,,,,,,,,,,,,,,,,,,,
1738703663.043401,1738703663.044285,91.000000,0.000000,3734.743652,3720.641113,4303.589844,4933.333496,4191.410156,4322.692383,4278.846191,4420.000000,4339.743652,4282.436035,4427.563965,4430.128418,4253.846191,4288.589844,5679.000000,2.000000,43.000000,,,,0.000000,4.000000,4.000000,0.000000,4.000000,0.000000,0.000000,0.000000,0.000000,0.000000,0.000000,4.000000,2.000000,4.000000,4.000000,0.000000,,,,,,,,,,,,,,,,,,,,,,,,,,,,,,,,,,,,,,,,,,,,,,,,,,,,,,,,,,,,,,,,,,,,,,,,,,,,,,,,,,,,,,
1738703663.051209,1738703663.052193,92.000000,0.000000,3657.179443,3632.948730,4293.333496,4875.256348,4183.077148,4315.641113,4282.820313,4416.922852,4337.179688,4281.410156,4386.794922,4416.025879,4177.948730,4217.692383,3847.000000,2.000000,43.000000,,,,0.000000,4.000000,4.000000,0.000000,4.000000,0.000000,0.000000,0.000000,0.000000,0.000000,0.000000,4.000000,2.000000,4.000000,4.000000,0.000000,,,,,,,,,,,,,,,,,,,,,,,,,,,,,,,,,,,,,,,,,,,,,,,,,,,,,,,,,,,,,,,,,,,,,,,,,,,,,,,,,,,,,,
1738703663.059018,1738703663.060002,93.000000,0.000000,3625.512939,3593.974365,4297.692383,4869.871582,4181.922852,4315.897461,4292.051270,4414.487305,4338.333496,4281.538574,4377.948730,4418.333496,4148.846191,4190.769043,706.000000,2.000000,43.000000,,,,0.000000,4.000000,4.000000,0.000000,4.000000,0.000000,0.000000,0.000000,0.000000,0.000000,0.000000,4.000000,2.000000,4.000000,4.000000,0.000000,,,,,,,,,,,,,,,,,,,,,,,,,,,,,,,,,,,,,,,,,,,,,,,,,,,,,,,,,,,,,,,,,,,,,,,,,,,,,,,,,,,,,,
1738703663.066826,1738703663.067910,94.000000,0.000000,3635.769287,3596.281982,4307.692383,4877.307617,4189.743652,4324.102539,4302.307617,4415.769043,4340.000000,4282.948730,4393.333496,4424.358887,4170.769043,4212.692383,6050.000000,2.000000,43.000000,,,,0.000000,4.000000,4.000000,0.000000,4.000000,0.000000,0.000000,0.000000,0.000000,0.000000,0.000000,4.000000,2.000000,4.000000,4.000000,0.000000,,,,,,,,,,,,,,,,,,,,,,,,,,,,,,,,,,,,,,,,,,,,,,,,,,,,,,,,,,,,,,,,,,,,,,,,,,,,,,,,,,,,,,
1738703663.074634,1738703663.075718,95.000000,0.000000,3635.897461,3581.281982,4315.897461,4866.410156,4187.051270,4326.666504,4309.743652,4415.128418,4338.974121,4281.538574,4396.282227,4425.769043,4175.128418,4217.307617,5679.000000,2.000000,43.000000,,,,0.000000,4.000000,4.000000,0.000000,4.000000,0.000000,0.000000,0.000000,0.000000,0.000000,0.000000,4.000000,2.000000,4.000000,4.000000,0.000000,,,,,,,,,,,,,,,,,393.258850,103.016113,23.006378,11.942534,5.115769,458.135803,131.971405,23.118246,11.375800,5.772361,0.376773,0.408379,0.059734,0.051932,0.040324,1024.480957,136.315598,168.846527,81.188515,25.843323,12.327941,4.088587,1.853710,0.478667,0.330135,0.172663,0.081858,0.063628,0.030768,0.028353,1.696011,1.619843,2.062496,0.538771,0.218045,0.051064,0.031977,0.036034,0.054883,0.020689,0.677072,0.279169,0.184721,0.112014,0.064762,0.058291,0.020091,0.012026,0.009662,0.012449,98.694984,32.465523,6.991899,5.008153,2.641459,4.902959,2.290996,0.469867,0.404369,0.222635,479.061523,118.895561,24.674917,14.715665,6.428609,356.504272,93.218460,19.779310,10.335685,4.573494
1738703663.082442,1738703663.083627,96.000000,0.000000,3639.615479,3575.769287,4313.717773,4862.436035,4185.769043,4322.179688,4310.384766,4411.922852,4340.128418,4283.461426,4393.717773,4427.948730,4168.974121,4210.384766,3847.000000,2.000000,43.000000,,,,0.000000,4.000000,4.000000,0.000000,4.000000,0.000000,0.000000,0.000000,0.000000,0.000000,0.000000,4.000000,2.000000,4.000000,4.000000,0.000000,,,,,,,,,,,,,,,,,,,,,,,,,,,,,,,,,,,,,,,,,,,,,,,,,,,,,,,,,,,,,,,,,,,,,,,,,,,,,,,,,,,,,,
1738703663.090251,1738703663.091435,97.000000,0.000000,3663.718018,3602.948730,4314.743652,4867.051270,4190.897461,4320.512695,4305.769043,4412.307617,4339.230957,4286.153809,4404.358887,4432.436035,4186.922852,4230.512695,706.000000,2.000000,43.000000,,,,0.000000,4.000000,4.000000,0.000000,4.000000,0.000000,0.000000,0.000000,0.000000,0.000000,0.000000,4.000000,2.000000,4.000000,4.000000,0.000000,,,,,,,,,,,,,,,,,,,,,,,,,,,,,,,,,,,,,,,,,,,,,,,,,,,,,,,,,,,,,,,,,,,,,,,,,,,,,,,,,,,,,,
1738703663.098059,1738703663.099344,98.000000,0.000000,3682.564209,3620.897461,4315.000000,4869.615234,4186.153809,4322.692383,4294.615234,4413.589844,4335.641113,4285.000000,4414.358887,4433.846191,4210.769043,4253.205078,6050.000000,2.000000,43.000000,,,,0.000000,4.000000,4.000000,0.000000,4.000000,0.000000,0.000000,0.000000,0.000000,0.000000,0.000000,4.000000,2.000000,4.000000,4.000000,0.000000,,,,,,,,,,,,,,,,,,,,,,,,,,,,,,,,,,,,,,,,,,,,,,,,,,,,,,,,,,,,,,,,,,,,,,,,,,,,,,,,,,,,,,
1738703663.105867,1738703663.107152,99.000000,0.000000,3673.846191,3604.871826,4307.692383,4865.256348,4170.384766,4322.051270,4286.153809,4413.846191,4333.974121,4282.563965,4404.871582,4431.666504,4201.794922,4242.179688,5679.000000,2.000000,43.000000,,,,0.000000,4.000000,4.000000,0.000000,4.000000,0.000000,0.000000,0.000000,0.000000,0.000000,0.000000,4.000000,2.000000,4.000000,4.000000,0.000000,,,,,,,,,,,,,,,,,,,,,,,,,,,,,,,,,,,,,,,,,,,,,,,,,,,,,,,,,,,,,,,,,,,,,,,,,,,,,,,,,,,,,,
1738703663.113675,1738703663.115060,100.000000,0.000000,3673.589844,3595.512939,4301.153809,4867.436035,4172.051270,4318.589844,4291.794922,4415.641113,4337.563965,4282.563965,4410.512695,4434.230957,4203.461426,4242.820313,3847.000000,2.000000,43.000000,,,,0.000000,4.000000,4.000000,0.000000,4.000000,0.000000,0.000000,0.000000,0.000000,0.000000,0.000000,4.000000,2.000000,4.000000,4.000000,0.000000,,,,,,,,,,,,,,,,,,,,,,,,,,,,,,,,,,,,,,,,,,,,,,,,,,,,,,,,,,,,,,,,,,,,,,,,,,,,,,,,,,,,,,
1738703663.121484,1738703663.122869,101.000000,0.000000,3697.435791,3609.230713,4301.282227,4876.410156,4184.743652,4319.358887,4289.871582,4416.794922,4341.153809,4283.205078,4435.128418,4440.641113,4244.615234,4276.794922,706.000000,2.000000,43.000000,,,,0.000000,4.000000,4.000000,0.000000,4.000000,0.000000,0.000000,0.000000,0.000000,0.000000,0.000000,4.000000,2.000000,4.000000,4.000000,0.000000,,,,,,,,,,,,,,,,,,,,,,,,,,,,,,,,,,,,,,,,,,,,,,,,,,,,,,,,,,,,,,,,,,,,,,,,,,,,,,,,,,,,,,
1738703663.129292,1738703663.130777,102.000000,0.000000,3684.230713,3592.820557,4300.384766,4856.410156,4185.128418,4322.563965,4292.051270,4415.000000,4339.743652,4282.307617,4418.333496,4435.384766,4235.256348,4266.922852,6050.000000,2.000000,43.000000,,,,0.000000,4.000000,4.000000,0.000000,4.000000,0.000000,0.000000,0.000000,0.000000,0.000000,0.000000,4.000000,2.000000,4.000000,4.000000,0.000000,,,,,,,,,,,,,,,,,,,,,,,,,,,,,,,,,,,,,,,,,,,,,,,,,,,,,,,,,,,,,,,,,,,,,,,,,,,,,,,,,,,,,,
1738703663.137100,1738703663.138586,103.000000,0.000000,3637.948730,3542.692383,4295.128418,4810.897461,4191.025879,4323.974121,4361.666504,4415.512695,4341.282227,4281.410156,4380.128418,4426.153809,4169.871582,4214.358887,5679.000000,2.000000,43.000000,,,,0.000000,4.000000,4.000000,0.000000,4.000000,0.000000,0.000000,0.000000,0.000000,0.000000,0.000000,4.000000,2.000000,4.000000,4.000000,0.000000,,,,,,,,,,,,,,,,,,,,,,,,,,,,,,,,,,,,,,,,,,,,,,,,,,,,,,,,,,,,,,,,,,,,,,,,,,,,,,,,,,,,,,
1738703663.144909,1738703663.146294,104.000000,0.000000,3625.128174,3518.718018,4294.102539,4797.179688,4192.692383,4322.051270,4437.948730,4415.641113,4340.512695,4281.538574,4380.384766,4427.179688,4151.666504,4200.128418,3847.000000,2.000000,43.000000,,,,0.000000,4.000000,4.000000,0.000000,4.000000,0.000000,0.000000,0.000000,0.000000,0.000000,0.000000,4.000000,2.000000,4.000000,4.000000,0.000000,,,,,,,,,,,,,,,,,,,,,,,,,,,,,,,,,,,,,,,,,,,,,,,,,,,,,,,,,,,,,,,,,,,,,,,,,,,,,,,,,,,,,,
1738703663.152717,1738703663.154103,105.000000,0.000000,3624.871826,3509.230713,4293.205078,4796.153809,4169.487305,4321.794922,4430.512695,4415.256348,4336.282227,4282.563965,4387.179688,4429.102539,4165.128418,4205.384766,706.000000,2.000000,43.000000,,,,0.000000,4.000000,4.000000,0.000000,4.000000,0.000000,0.000000,0.000000,0.000000,0.000000,0.000000,4.000000,2.000000,4.000000,4.000000,0.000000,,,,,,,,,,,,,,,,,,,,,,,,,,,,,,,,,,,,,,,,,,,,,,,,,,,,,,,,,,,,,,,,,,,,,,,,,,,,,,,,,,,,,,
1738703663.160525,1738703663.161811,106.000000,0.000000,3585.128174,3454.615479,4296.666504,4753.717773,4166.922852,4323.974121,4397.948730,4415.384766,4336.794922,4282.563965,4356.538574,4422.820313,4126.794922,4170.641113,6050.000000,2.000000,43.000000,,,,0.000000,4.000000,4.000000,0.000000,4.000000,0.000000,0.000000,0.000000,0.000000,0.000000,0.000000,4.000000,2.000000,4.000000,4.000000,0.000000,,,,,,,,,,,,,,,,,,,,,,,,,,,,,,,,,,,,,,,,,,,,,,,,,,,,,,,,,,,,,,,,,,,,,,,,,,,,,,,,,,,,,,
1738703663.168333,1738703663.169620,107.000000,0.000000,3537.307617,3395.512939,4298.205078,4693.461426,4188.974121,4322.307617,4397.307617,4414.871582,4339.615234,4282.563965,4320.769043,4410.897461,4063.718018,4122.307617,5679.000000,2.000000,43.000000,,,,0.000000,4.000000,4.000000,0.000000,4.000000,0.000000,0.000000,0.000000,0.000000,0.000000,0.000000,4.000000,2.000000,4.000000,4.000000,0.000000,,,,,,,,,,,,,,,,,,,,,,,,,,,,,,,,,,,,,,,,,,,,,,,,,,,,,,,,,,,,,,,,,,,,,,,,,,,,,,,,,,,,,,
1738703663.176142,1738703663.177328,108.000000,0.000000,3522.692383,3386.538574,4300.128418,4659.230957,4180.256348,4321.922852,4391.025879,4415.769043,4338.205078,4282.179688,4313.461426,4410.897461,4034.230713,4103.205078,3847.000000,2.000000,43.000000,,,,0.000000,4.000000,4.000000,0.000000,4.000000,0.000000,0.000000,0.000000,0.000000,0.000000,0.000000,4.000000,2.000000,4.000000,4.000000,0.000000,,,,,,,,,,,,,,,,,,,,,,,,,,,,,,,,,,,,,,,,,,,,,,,,,,,,,,,,,,,,,,,,,,,,,,,,,,,,,,,,,,,,,,
1738703663.183950,1738703663.185137,109.000000,0.000000,3528.461426,3393.333252,4293.717773,4641.666504,4162.307617,4323.717773,4382.820313,4418.333496,4336.666504,4281.410156,4321.794922,4417.051270,4035.512939,4108.589844,706.000000,2.000000,43.000000,,,,0.000000,4.000000,4.000000,0.000000,4.000000,0.000000,0.000000,0.000000,0.000000,0.000000,0.000000,4.000000,2.000000,4.000000,4.000000,0.000000,,,,,,,,,,,,,,,,,,,,,,,,,,,,,,,,,,,,,,,,,,,,,,,,,,,,,,,,,,,,,,,,,,,,,,,,,,,,,,,,,,,,,,
1738703663.191758,1738703663.192845,110.000000,0.000000,3536.538574,3383.974365,4289.615234,4616.025879,4169.487305,4324.358887,4397.051270,4417.307617,4336.538574,4281.794922,4324.102539,4418.717773,4039.358887,4118.461426,6050.000000,2.000000,43.000000,,,,0.000000,4.000000,4.000000,0.000000,4.000000,0.000000,0.000000,0.000000,0.000000,0.000000,0.000000,4.000000,2.000000,4.000000,4.000000,0.000000,,,,,,,,,,,,,,,,,,,,,,,,,,,,,,,,,,,,,,,,,,,,,,,,,,,,,,,,,,,,,,,,,,,,,,,,,,,,,,,,,,,,,,
1738703663.199566,1738703663.200654,111.000000,0.000000,3540.384521,3378.333252,4285.000000,4608.974121,4175.512695,4326.153809,4401.538574,4412.051270,4337.051270,4282.179688,4320.128418,4410.769043,4035.256348,4119.743652,5679.000000,2.000000,43.000000,,,,0.000000,4.000000,4.000000,0.000000,4.000000,0.000000,0.000000,0.000000,0.000000,0.000000,0.000000,4.000000,2.000000,4.000000,4.000000,0.000000,1.000000,0.000000,0.000000,0.000000,0.000000,0.000000,0.000000,0.000000,0.000000,0.000000,0.000000,0.000000,0.000000,2.000000,0.000000,0.000000,388.120758,95.566811,18.742279,7.439298,3.855518,507.916199,119.889549,19.318810,6.718012,4.436421,0.317128,0.368938,0.066510,0.053937,0.035130,326.403687,66.818092,41.962315,14.466965,7.006702,15.285073,4.524351,2.972220,0.735964,0.475252,0.235942,0.082558,0.068776,0.027057,0.025915,1.712646,1.517571,1.923051,0.474455,0.247477,0.042675,0.026441,0.028900,0.049008,0.020759,0.504400,0.208188,0.141085,0.087121,0.057911,0.076499,0.014780,0.014174,0.011154,0.016247,105.986359,28.781763,6.402383,3.252963,2.059751,5.247303,2.068510,0.457400,0.266748,0.189887,509.778046,105.891281,22.129807,9.237977,4.823969,370.279480,84.161278,17.093941,6.078928,3.371670
1738703663.207375,1738703663.208362,112.000000,0.000000,3548.333252,3390.384521,4281.922852,4636.794922,4168.333496,4325.641113,4394.102539,4411.922852,4338.205078,4281.922852,4321.922852,4406.922852,4035.641113,4121.410156,3847.000000,2.000000,43.000000,,,,0.000000,4.000000,4.000000,0.000000,4.000000,0.000000,0.000000,0.000000,0.000000,0.000000,0.000000,4.000000,2.000000,4.000000,4.000000,0.000000,,,,,,,,,,,,,,,,,,,,,,,,,,,,,,,,,,,,,,,,,,,,,,,,,,,,,,,,,,,,,,,,,,,,,,,,,,,,,,,,,,,,,,
1738703663.215183,1738703663.216171,113.000000,0.000000,3538.076904,3375.769287,4278.717773,4635.641113,4158.461426,4320.128418,4386.282227,4413.974121,4337.692383,4280.897461,4313.589844,4402.051270,4018.076904,4111.794922,706.000000,2.000000,43.000000,,,,0.000000,4.000000,4.000000,0.000000,4.000000,0.000000,0.000000,0.000000,0.000000,0.000000,0.000000,4.000000,2.000000,4.000000,4.000000,0.000000,,,,,,,,,,,,,,,,,,,,,,,,,,,,,,,,,,,,,,,,,,,,,,,,,,,,,,,,,,,,,,,,,,,,,,,,,,,,,,,,,,,,,,
1738703663.222991,1738703663.223879,114.000000,0.000000,3489.102539,3308.076904,4278.846191,4580.256348,4159.230957,4319.102539,4380.256348,4413.717773,4340.000000,4280.000000,4281.282227,4393.717773,3962.051270,4066.025635,6050.000000,2.000000,43.000000,,,,0.000000,4.000000,4.000000,0.000000,4.000000,0.000000,0.000000,0.000000,0.000000,0.000000,0.000000,4.000000,2.000000,4.000000,4.000000,0.000000,,,,,,,,,,,,,,,,,,,,,,,,,,,,,,,,,,,,,,,,,,,,,,,,,,,,,,,,,,,,,,,,,,,,,,,,,,,,,,,,,,,,,,
1738703663.230799,1738703663.231688,115.000000,0.000000,3441.923096,3246.025635,4275.384766,4538.077148,4168.205078,4319.743652,4375.641113,4412.307617,4342.051270,4279.871582,4255.000000,4390.384766,3915.897461,4019.230713,5679.000000,2.000000,43.000000,,,,0.000000,4.000000,4.000000,0.000000,4.000000,0.000000,0.000000,0.000000,0.000000,0.000000,0.000000,4.000000,2.000000,4.000000,4.000000,0.000000,,,,,,,,,,,,,,,,,,,,,,,,,,,,,,,,,,,,,,,,,,,,,,,,,,,,,,,,,,,,,,,,,,,,,,,,,,,,,,,,,,,,,,
1738703663.238608,1738703663.239396,116.000000,0.000000,3428.461426,3236.410156,4266.666504,4538.077148,4162.179688,4315.897461,4369.358887,4413.717773,4339.871582,4281.025879,4256.025879,4390.769043,3895.000000,4005.384521,3847.000000,2.000000,43.000000,,,,0.000000,4.000000,4.000000,0.000000,4.000000,0.000000,0.000000,0.000000,0.000000,0.000000,0.000000,4.000000,2.000000,4.000000,4.000000,0.000000,,,,,,,,,,,,,,,,,,,,,,,,,,,,,,,,,,,,,,,,,,,,,,,,,,,,,,,,,,,,,,,,,,,,,,,,,,,,,,,,,,,,,,
1738703663.246416,1738703663.247304,117.000000,0.000000,3438.333252,3253.974365,4262.436035,4553.333496,4154.871582,4313.846191,4362.051270,4414.102539,4339.871582,4282.563965,4264.102539,4390.256348,3888.974365,4013.333252,706.000000,2.000000,43.000000,,,,0.000000,4.000000,4.000000,0.000000,4.000000,0.000000,0.000000,0.000000,0.000000,0.000000,0.000000,4.000000,2.000000,4.000000,4.000000,0.000000,,,,,,,,,,,,,,,,,,,,,,,,,,,,,,,,,,,,,,,,,,,,,,,,,,,,,,,,,,,,,,,,,,,,,,,,,,,,,,,,,,,,,,
1738703663.254224,1738703663.255113,118.000000,0.000000,3461.281982,3271.666748,4261.538574,4584.230957,4170.000000,4315.512695,4357.051270,4412.051270,4340.641113,4282.820313,4271.794922,4392.307617,3925.000000,4035.128174,6050.000000,2.000000,43.000000,,,,0.000000,4.000000,4.000000,0.000000,4.000000,0.000000,0.000000,0.000000,0.000000,0.000000,0.000000,4.000000,2.000000,4.000000,4.000000,0.000000,,,,,,,,,,,,,,,,,,,,,,,,,,,,,,,,,,,,,,,,,,,,,,,,,,,,,,,,,,,,,,,,,,,,,,,,,,,,,,,,,,,,,,
1738703663.262032,1738703663.263021,119.000000,0.000000,3508.974365,3321.410156,4263.205078,4641.538574,4176.922852,4312.820313,4351.666504,4412.051270,4337.051270,4281.666504,4296.794922,4401.153809,3981.666748,4082.435791,5679.000000,2.000000,43.000000,,,,0.000000,4.000000,4.000000,0.000000,4.000000,0.000000,0.000000,0.000000,0.000000,0.000000,0.000000,4.000000,2.000000,4.000000,4.000000,0.000000,,,,,,,,,,,,,,,,,,,,,,,,,,,,,,,,,,,,,,,,,,,,,,,,,,,,,,,,,,,,,,,,,,,,,,,,,,,,,,,,,,,,,,
1738703663.269841,1738703663.270829,120.000000,0.000000,3555.897461,3371.666748,4258.205078,4673.333496,4166.153809,4312.436035,4343.461426,4414.615234,4338.205078,4281.410156,4318.461426,4402.692383,4005.128174,4123.974121,3847.000000,2.000000,43.000000,,,,0.000000,4.000000,4.000000,0.000000,4.000000,0.000000,0.000000,0.000000,0.000000,0.000000,0.000000,4.000000,2.000000,4.000000,4.000000,0.000000,,,,,,,,,,,,,,,,,,,,,,,,,,,,,,,,,,,,,,,,,,,,,,,,,,,,,,,,,,,,,,,,,,,,,,,,,,,,,,,,,,,,,,
1738703663.277649,1738703663.278638,121.000000,0.000000,3553.589844,3365.384521,4257.179688,4633.333496,4171.025879,4316.666504,4333.461426,4413.974121,4338.461426,4282.692383,4305.384766,4395.000000,4001.923096,4114.487305,706.000000,2.000000,43.000000,,,,0.000000,4.000000,4.000000,0.000000,4.000000,0.000000,0.000000,0.000000,0.000000,0.000000,0.000000,4.000000,2.000000,4.000000,4.000000,0.000000,,,,,,,,,,,,,,,,,,,,,,,,,,,,,,,,,,,,,,,,,,,,,,,,,,,,,,,,,,,,,,,,,,,,,,,,,,,,,,,,,,,,,,
1738703663.285457,1738703663.286346,122.000000,0.000000,3525.641113,3356.281982,4255.641113,4591.922852,4175.384766,4315.897461,4327.563965,4410.384766,4333.846191,4282.307617,4287.436035,4386.153809,4002.692383,4086.410156,6050.000000,2.000000,43.000000,,,,0.000000,4.000000,4.000000,0.000000,4.000000,0.000000,0.000000,0.000000,0.000000,0.000000,0.000000,4.000000,2.000000,4.000000,4.000000,0.000000,,,,,,,,,,,,,,,,,,,,,,,,,,,,,,,,,,,,,,,,,,,,,,,,,,,,,,,,,,,,,,,,,,,,,,,,,,,,,,,,,,,,,,
1738703663.293265,1738703663.294255,123.000000,0.000000,3524.102539,3374.358887,4256.153809,4606.922852,4159.487305,4313.205078,4329.230957,4409.230957,4334.358887,4280.384766,4293.333496,4384.871582,3991.538574,4079.102539,5679.000000,2.000000,43.000000,,,,0.000000,4.000000,4.000000,0.000000,4.000000,0.000000,0.000000,0.000000,0.000000,0.000000,0.000000,4.000000,2.000000,4.000000,4.000000,0.000000,,,,,,,,,,,,,,,,,,,,,,,,,,,,,,,,,,,,,,,,,,,,,,,,,,,,,,,,,,,,,,,,,,,,,,,,,,,,,,,,,,,,,,
1738703663.301074,1738703663.302063,124.000000,0.000000,3523.589844,3365.769287,4251.538574,4607.692383,4149.615234,4312.692383,4331.025879,4410.769043,4336.922852,4280.512695,4290.512695,4379.230957,3972.307617,4070.769287,3847.000000,2.000000,43.000000,,,,0.000000,4.000000,4.000000,0.000000,4.000000,0.000000,0.000000,0.000000,0.000000,0.000000,0.000000,4.000000,2.000000,4.000000,4.000000,0.000000,,,,,,,,,,,,,,,,,,,,,,,,,,,,,,,,,,,,,,,,,,,,,,,,,,,,,,,,,,,,,,,,,,,,,,,,,,,,,,,,,,,,,,
1738703663.308882,1738703663.309971,125.000000,0.000000,3490.256348,3333.461426,4250.641113,4563.974121,4152.563965,4311.922852,4321.794922,4408.077148,4335.641113,4281.538574,4270.769043,4371.538574,3955.897461,4044.871826,706.000000,2.000000,43.000000,,,,0.000000,4.000000,4.000000,0.000000,4.000000,0.000000,0.000000,0.000000,0.000000,0.000000,0.000000,4.000000,2.000000,4.000000,4.000000,0.000000,,,,,,,,,,,,,,,,,,,,,,,,,,,,,,,,,,,,,,,,,,,,,,,,,,,,,,,,,,,,,,,,,,,,,,,,,,,,,,,,,,,,,,
1738703663.316690,1738703663.317780,126.000000,0.000000,3475.897461,3325.128174,4248.589844,4546.410156,4156.153809,4311.538574,4310.641113,4406.410156,4335.000000,4281.153809,4269.102539,4369.615234,3942.051270,4033.846191,6050.000000,2.000000,43.000000,,,,0.000000,4.000000,4.000000,0.000000,4.000000,0.000000,0.000000,0.000000,0.000000,0.000000,0.000000,4.000000,2.000000,4.000000,4.000000,0.000000,,,,,,,,,,,,,,,,,,,,,,,,,,,,,,,,,,,,,,,,,,,,,,,,,,,,,,,,,,,,,,,,,,,,,,,,,,,,,,,,,,,,,,
1738703663.324499,1738703663.325488,127.000000,0.000000,3503.974365,3343.846191,4251.025879,4561.538574,4153.333496,4312.179688,4309.230957,4409.358887,4335.128418,4280.769043,4283.846191,4377.948730,3961.794922,4050.641113,43.000000,2.000000,43.000000,,,,0.000000,4.000000,4.000000,0.000000,4.000000,0.000000,0.000000,0.000000,0.000000,0.000000,0.000000,4.000000,2.000000,4.000000,4.000000,0.000000,,,,,,,,,,,,,,,,,542.985474,93.371628,16.356436,6.620871,3.808593,696.439026,116.488136,17.619997,6.016516,4.474396,0.300426,0.329049,0.087960,0.062019,0.035287,162.038727,39.736050,19.249308,4.685220,3.790793,23.804420,6.058851,4.758250,1.121026,0.746411,0.392629,0.090456,0.080756,0.031742,0.025643,2.204468,1.531489,1.863458,0.438062,0.311199,0.039822,0.027268,0.023156,0.041842,0.021469,0.328359,0.137704,0.095588,0.061074,0.051097,0.112849,0.015553,0.016974,0.014768,0.023268,145.876831,28.248426,6.205043,2.954046,2.002053,6.863005,1.936476,0.478574,0.244101,0.205416,699.021667,105.706314,20.807266,8.015667,4.608790,492.501770,84.315353,15.505938,5.388760,3.435903
1738703663.332307,1738703663.333297,0.000000,0.000000,3526.923096,3374.743652,4253.077148,4566.922852,4143.333496,4309.871582,4310.128418,4410.384766,4335.256348,4281.282227,4290.641113,4380.128418,3995.769287,4067.692383,0.000000,2.000000,43.000000,,,,0.000000,4.000000,4.000000,0.000000,4.000000,0.000000,0.000000,0.000000,0.000000,0.000000,0.000000,4.000000,2.000000,4.000000,4.000000,0.000000,,,,,,,,,,,,,,,,,,,,,,,,,,,,,,,,,,,,,,,,,,,,,,,,,,,,,,,,,,,,,,,,,,,,,,,,,,,,,,,,,,,,,,
1738703663.340115,1738703663.341005,1.000000,0.000000,3522.948730,3395.128174,4257.307617,4562.307617,4136.538574,4309.871582,4308.333496,4411.922852,4339.871582,4278.717773,4291.153809,4378.205078,3992.820557,4066.281982,4572.000000,2.000000,43.000000,,,,0.000000,4.000000,4.000000,0.000000,4.000000,0.000000,0.000000,0.000000,0.000000,0.000000,0.000000,4.000000,2.000000,4.000000,4.000000,0.000000,,,,,,,,,,,,,,,,,,,,,,,,,,,,,,,,,,,,,,,,,,,,,,,,,,,,,,,,,,,,,,,,,,,,,,,,,,,,,,,,,,,,,,
1738703663.347923,1738703663.348814,2.000000,0.000000,3501.794922,3373.589844,4256.410156,4556.025879,4140.000000,4312.948730,4300.769043,4416.025879,4341.538574,4275.384766,4282.820313,4376.153809,3964.358887,4045.512939,5728.000000,2.000000,43.000000,,,,0.000000,4.000000,4.000000,0.000000,4.000000,0.000000,0.000000,0.000000,0.000000,0.000000,0.000000,4.000000,2.000000,4.000000,4.000000,0.000000,,,,,,,,,,,,,,,,,,,,,,,,,,,,,,,,,,,,,,,,,,,,,,,,,,,,,,,,,,,,,,,,,,,,,,,,,,,,,,,,,,,,,,
1738703663.355732,1738703663.356522,3.000000,0.000000,3465.000000,3319.871826,4255.769043,4554.871582,4138.333496,4309.871582,4292.436035,4416.153809,4340.256348,4277.692383,4254.615234,4370.384766,3932.820557,4008.333252,5956.000000,2.000000,43.000000,,,,0.000000,4.000000,4.000000,0.000000,4.000000,0.000000,0.000000,0.000000,0.000000,0.000000,0.000000,4.000000,2.000000,4.000000,4.000000,0.000000,,,,,,,,,,,,,,,,,,,,,,,,,,,,,,,,,,,,,,,,,,,,,,,,,,,,,,,,,,,,,,,,,,,,,,,,,,,,,,,,,,,,,,
1738703663.363540,1738703663.364431,4.000000,0.000000,3435.769287,3285.897461,4260.256348,4566.922852,4133.717773,4305.128418,4287.948730,4413.077148,4341.282227,4280.512695,4231.153809,4366.410156,3899.102539,3970.256348,185.000000,2.000000,43.000000,,,,0.000000,4.000000,4.000000,0.000000,4.000000,1.000000,0.000000,0.000000,0.000000,0.000000,0.000000,4.000000,2.000000,4.000000,4.000000,0.000000,,,,,,,,,,,,,,,,,,,,,,,,,,,,,,,,,,,,,,,,,,,,,,,,,,,,,,,,,,,,,,,,,,,,,,,,,,,,,,,,,,,,,,
1738703663.371348,1738703663.372239,5.000000,0.000000,3429.743652,3282.948730,4256.794922,4558.974121,4138.205078,4306.410156,4293.205078,4412.051270,4341.025879,4278.333496,4233.205078,4366.410156,3886.410156,3957.435791,0.000000,2.000000,43.000000,,,,0.000000,4.000000,4.000000,0.000000,4.000000,1.000000,0.000000,0.000000,0.000000,0.000000,0.000000,4.000000,2.000000,4.000000,4.000000,0.000000,,,,,,,,,,,,,,,,,,,,,,,,,,,,,,,,,,,,,,,,,,,,,,,,,,,,,,,,,,,,,,,,,,,,,,,,,,,,,,,,,,,,,,
1738703663.379156,1738703663.380048,6.000000,0.000000,3434.358887,3281.666748,4251.794922,4532.307617,4139.743652,4306.666504,4293.589844,4412.179688,4341.153809,4277.436035,4240.384766,4370.512695,3897.307617,3970.769287,0.000000,2.000000,43.000000,,,,0.000000,4.000000,4.000000,0.000000,4.000000,1.000000,0.000000,0.000000,0.000000,0.000000,0.000000,4.000000,2.000000,4.000000,4.000000,0.000000,,,,,,,,,,,,,,,,,,,,,,,,,,,,,,,,,,,,,,,,,,,,,,,,,,,,,,,,,,,,,,,,,,,,,,,,,,,,,,,,,,,,,,
1738703663.386965,1738703663.387756,7.000000,0.000000,3447.051270,3287.435791,4256.794922,4548.846191,4135.897461,4305.256348,4278.333496,4411.282227,4340.256348,4280.641113,4239.102539,4370.897461,3901.666748,3980.128174,0.000000,2.000000,43.000000,,,,0.000000,4.000000,4.000000,0.000000,4.000000,1.000000,0.000000,0.000000,0.000000,0.000000,0.000000,4.000000,2.000000,4.000000,4.000000,0.000000,,,,,,,,,,,,,,,,,,,,,,,,,,,,,,,,,,,,,,,,,,,,,,,,,,,,,,,,,,,,,,,,,,,,,,,,,,,,,,,,,,,,,,
1738703663.394773,1738703663.395565,8.000000,0.000000,3467.692383,3315.256348,4270.000000,4594.743652,4136.922852,4303.846191,4266.025879,4409.102539,4336.025879,4282.563965,4245.769043,4373.589844,3904.615479,3982.564209,0.000000,2.000000,43.000000,,,,0.000000,4.000000,4.000000,0.000000,4.000000,1.000000,0.000000,0.000000,0.000000,0.000000,0.000000,4.000000,2.000000,4.000000,4.000000,0.000000,,,,,,,,,,,,,,,,,,,,,,,,,,,,,,,,,,,,,,,,,,,,,,,,,,,,,,,,,,,,,,,,,,,,,,,,,,,,,,,,,,,,,,
1738703663.402581,1738703663.403273,9.000000,0.000000,3500.256348,3360.769287,4266.922852,4626.153809,4138.717773,4302.563965,4267.436035,4408.077148,4336.153809,4281.666504,4270.000000,4380.769043,3931.410156,4012.564209,0.000000,2.000000,43.000000,,,,0.000000,4.000000,4.000000,0.000000,4.000000,1.000000,0.000000,0.000000,0.000000,0.000000,0.000000,4.000000,2.000000,4.000000,4.000000,0.000000,,,,,,,,,,,,,,,,,,,,,,,,,,,,,,,,,,,,,,,,,,,,,,,,,,,,,,,,,,,,,,,,,,,,,,,,,,,,,,,,,,,,,,
1738703663.410389,1738703663.411082,10.000000,0.000000,3558.461426,3411.794922,4266.666504,4662.820313,4142.307617,4301.922852,4267.179688,4408.205078,4339.230957,4281.025879,4297.948730,4393.589844,3986.794922,4072.692383,6050.000000,2.000000,43.000000,,,,0.000000,4.000000,4.000000,0.000000,4.000000,1.000000,0.000000,0.000000,0.000000,0.000000,0.000000,4.000000,2.000000,4.000000,4.000000,0.000000,,,,,,,,,,,,,,,,,,,,,,,,,,,,,,,,,,,,,,,,,,,,,,,,,,,,,,,,,,,,,,,,,,,,,,,,,,,,,,,,,,,,,,
1738703663.418198,1738703663.418790,11.000000,0.000000,3611.666748,3460.384521,4270.769043,4685.384766,4152.948730,4303.077148,4260.000000,4406.922852,4336.153809,4281.410156,4311.794922,4397.179688,4041.923096,4116.282227,5686.000000,2.000000,43.000000,,,,0.000000,4.000000,4.000000,0.000000,4.000000,1.000000,0.000000,0.000000,0.000000,0.000000,0.000000,4.000000,2.000000,4.000000,4.000000,0.000000,,,,,,,,,,,,,,,,,,,,,,,,,,,,,,,,,,,,,,,,,,,,,,,,,,,,,,,,,,,,,,,,,,,,,,,,,,,,,,,,,,,,,,
1738703663.426006,1738703663.426598,12.000000,0.000000,3632.435791,3487.179443,4276.410156,4663.589844,4158.333496,4303.974121,4260.256348,4406.538574,4332.948730,4281.794922,4324.358887,4400.256348,4076.538574,4136.794922,3817.000000,2.000000,43.000000,,,,0.000000,4.000000,4.000000,0.000000,4.000000,1.000000,0.000000,0.000000,0.000000,0.000000,0.000000,4.000000,2.000000,4.000000,4.000000,0.000000,,,,,,,,,,,,,,,,,,,,,,,,,,,,,,,,,,,,,,,,,,,,,,,,,,,,,,,,,,,,,,,,,,,,,,,,,,,,,,,,,,,,,,
1738703663.433814,1738703663.434306,13.000000,0.000000,3649.743652,3499.743652,4271.922852,4653.589844,4154.358887,4303.717773,4258.589844,4408.589844,4334.871582,4281.794922,4340.897461,4403.077148,4106.410156,4158.461426,716.000000,2.000000,43.000000,,,,0.000000,4.000000,4.000000,0.000000,4.000000,1.000000,0.000000,0.000000,0.000000,0.000000,0.000000,4.000000,2.000000,4.000000,4.000000,0.000000,,,,,,,,,,,,,,,,,,,,,,,,,,,,,,,,,,,,,,,,,,,,,,,,,,,,,,,,,,,,,,,,,,,,,,,,,,,,,,,,,,,,,,
1738703663.441622,1738703663.442215,14.000000,0.000000,3652.435791,3499.102539,4269.230957,4648.461426,4160.000000,4301.282227,4251.153809,4404.743652,4334.871582,4281.538574,4322.051270,4398.077148,4098.205078,4150.769043,6050.000000,2.000000,43.000000,,,,0.000000,4.000000,4.000000,0.000000,4.000000,1.000000,0.000000,0.000000,0.000000,0.000000,0.000000,4.000000,2.000000,4.000000,4.000000,0.000000,,,,,,,,,,,,,,,,,,,,,,,,,,,,,,,,,,,,,,,,,,,,,,,,,,,,,,,,,,,,,,,,,,,,,,,,,,,,,,,,,,,,,,
1738703663.449431,1738703663.450023,15.000000,0.000000,3635.641113,3492.051270,4264.230957,4622.948730,4163.461426,4298.205078,4253.205078,4399.102539,4332.948730,4281.666504,4290.512695,4388.974121,4059.102539,4120.256348,5686.000000,2.000000,43.000000,,,,0.000000,4.000000,4.000000,0.000000,4.000000,1.000000,0.000000,0.000000,0.000000,0.000000,0.000000,4.000000,2.000000,4.000000,4.000000,0.000000,,,,,,,,,,,,,,,,,723.375916,90.108246,15.547978,6.479832,4.128456,917.952515,112.247025,17.067133,6.079432,4.933968,0.335896,0.308306,0.119881,0.075776,0.037773,169.693314,32.832645,20.569984,5.347746,3.625049,33.827377,8.106105,6.986184,1.554833,1.107124,0.610643,0.107239,0.099094,0.041468,0.027855,2.961454,1.812910,2.051055,0.493541,0.408469,0.036752,0.035949,0.019700,0.034431,0.022535,0.182265,0.082408,0.059275,0.040812,0.045310,0.149496,0.017545,0.021173,0.019348,0.031414,194.248535,27.799980,6.046802,2.850366,2.090883,8.649207,1.808147,0.520464,0.240197,0.232320,930.009033,105.051407,19.918795,7.399909,4.806574,631.257690,84.194130,14.670759,5.278217,3.854495
1738703663.457239,1738703663.457932,16.000000,0.000000,3635.897461,3495.128174,4260.641113,4615.000000,4155.128418,4299.230957,4265.641113,4399.487305,4333.846191,4281.666504,4297.948730,4385.256348,4053.974365,4118.333496,0.000000,2.000000,43.000000,,,,0.000000,4.000000,4.000000,0.000000,4.000000,1.000000,0.000000,0.000000,0.000000,0.000000,0.000000,4.000000,2.000000,4.000000,4.000000,0.000000,,,,,,,,,,,,,,,,,,,,,,,,,,,,,,,,,,,,,,,,,,,,,,,,,,,,,,,,,,,,,,,,,,,,,,,,,,,,,,,,,,,,,,
1738703663.465047,1738703663.465740,17.000000,0.000000,3642.564209,3485.512939,4260.897461,4610.384766,4152.820313,4299.102539,4270.769043,4401.025879,4334.743652,4281.794922,4310.256348,4382.179688,4064.743652,4124.871582,0.000000,2.000000,43.000000,,,,0.000000,4.000000,4.000000,0.000000,4.000000,1.000000,0.000000,0.000000,0.000000,0.000000,0.000000,4.000000,2.000000,4.000000,4.000000,0.000000,,,,,,,,,,,,,,,,,,,,,,,,,,,,,,,,,,,,,,,,,,,,,,,,,,,,,,,,,,,,,,,,,,,,,,,,,,,,,,,,,,,,,,
1738703663.472855,1738703663.473648,18.000000,0.000000,3631.666748,3461.794922,4259.487305,4588.205078,4152.179688,4295.384766,4269.615234,4401.410156,4335.000000,4281.794922,4295.000000,4378.461426,4051.281982,4113.461426,0.000000,2.000000,43.000000,,,,0.000000,4.000000,4.000000,0.000000,4.000000,1.000000,0.000000,0.000000,0.000000,0.000000,0.000000,4.000000,2.000000,4.000000,4.000000,0.000000,,,,,,,,,,,,,,,,,,,,,,,,,,,,,,,,,,,,,,,,,,,,,,,,,,,,,,,,,,,,,,,,,,,,,,,,,,,,,,,,,,,,,,
1738703663.480664,1738703663.481457,19.000000,0.000000,3631.538574,3460.641113,4253.077148,4584.615234,4138.974121,4293.333496,4271.922852,4399.358887,4334.743652,4281.538574,4287.563965,4380.256348,4039.615479,4110.897461,0.000000,2.000000,43.000000,,,,0.000000,4.000000,4.000000,0.000000,4.000000,1.000000,0.000000,0.000000,0.000000,0.000000,0.000000,4.000000,2.000000,4.000000,4.000000,0.000000,,,,,,,,,,,,,,,,,,,,,,,,,,,,,,,,,,,,,,,,,,,,,,,,,,,,,,,,,,,,,,,,,,,,,,,,,,,,,,,,,,,,,,
1738703663.488472,1738703663.489365,20.000000,0.000000,3629.743652,3452.435791,4250.641113,4570.256348,4134.871582,4295.128418,4279.743652,4399.615234,4334.871582,4281.794922,4286.282227,4377.307617,4019.743652,4099.743652,0.000000,2.000000,43.000000,,,,0.000000,4.000000,4.000000,0.000000,4.000000,1.000000,0.000000,0.000000,0.000000,0.000000,0.000000,4.000000,2.000000,4.000000,4.000000,0.000000,,,,,,,,,,,,,,,,,,,,,,,,,,,,,,,,,,,,,,,,,,,,,,,,,,,,,,,,,,,,,,,,,,,,,,,,,,,,,,,,,,,,,,
1738703663.496280,1738703663.497174,21.000000,0.000000,3607.948730,3413.846191,4257.563965,4523.205078,4150.256348,4295.512695,4280.384766,4402.948730,4334.871582,4281.922852,4274.102539,4375.897461,3992.179443,4073.974365,0.000000,2.000000,43.000000,,,,0.000000,4.000000,4.000000,0.000000,4.000000,1.000000,0.000000,0.000000,0.000000,0.000000,0.000000,4.000000,2.000000,4.000000,4.000000,0.000000,,,,,,,,,,,,,,,,,,,,,,,,,,,,,,,,,,,,,,,,,,,,,,,,,,,,,,,,,,,,,,,,,,,,,,,,,,,,,,,,,,,,,,
1738703663.504089,1738703663.505082,22.000000,0.000000,3607.179443,3409.615479,4258.077148,4507.820313,4155.000000,4295.512695,4272.436035,4404.102539,4334.615234,4280.641113,4266.538574,4376.794922,3994.743652,4073.076904,0.000000,2.000000,43.000000,,,,0.000000,4.000000,4.000000,0.000000,4.000000,1.000000,0.000000,0.000000,0.000000,0.000000,0.000000,4.000000,2.000000,4.000000,4.000000,0.000000,,,,,,,,,,,,,,,,,,,,,,,,,,,,,,,,,,,,,,,,,,,,,,,,,,,,,,,,,,,,,,,,,,,,,,,,,,,,,,,,,,,,,,
1738703663.511897,1738703663.512990,23.000000,0.000000,3618.461426,3441.923096,4256.025879,4516.282227,4150.641113,4295.512695,4267.307617,4400.897461,4334.743652,4279.871582,4258.846191,4375.769043,3987.692383,4074.615479,0.000000,2.000000,43.000000,,,,0.000000,4.000000,4.000000,0.000000,4.000000,1.000000,0.000000,0.000000,0.000000,0.000000,0.000000,4.000000,2.000000,4.000000,4.000000,0.000000,,,,,,,,,,,,,,,,,,,,,,,,,,,,,,,,,,,,,,,,,,,,,,,,,,,,,,,,,,,,,,,,,,,,,,,,,,,,,,,,,,,,,,
1738703663.519705,1738703663.520799,24.000000,0.000000,3603.846191,3436.923096,4252.051270,4490.256348,4152.820313,4294.230957,4270.384766,4400.000000,4334.871582,4281.282227,4250.128418,4371.282227,3963.589844,4062.307617,0.000000,2.000000,43.000000,,,,0.000000,4.000000,4.000000,0.000000,4.000000,1.000000,0.000000,0.000000,0.000000,0.000000,0.000000,4.000000,2.000000,4.000000,4.000000,0.000000,,,,,,,,,,,,,,,,,,,,,,,,,,,,,,,,,,,,,,,,,,,,,,,,,,,,,,,,,,,,,,,,,,,,,,,,,,,,,,,,,,,,,,
1738703663.527513,1738703663.528607,25.000000,0.000000,3592.307617,3417.692383,4252.948730,4454.871582,4154.871582,4293.974121,4270.769043,4401.153809,4334.871582,4282.692383,4252.948730,4373.717773,3971.923096,4062.435791,0.000000,2.000000,43.000000,,,,0.000000,4.000000,4.000000,0.000000,4.000000,1.000000,0.000000,0.000000,0.000000,0.000000,0.000000,4.000000,2.000000,4.000000,4.000000,0.000000,,,,,,,,,,,,,,,,,,,,,,,,,,,,,,,,,,,,,,,,,,,,,,,,,,,,,,,,,,,,,,,,,,,,,,,,,,,,,,,,,,,,,,
1738703663.535322,1738703663.536316,26.000000,0.000000,3615.256348,3445.128174,4247.820313,4457.051270,4152.692383,4292.563965,4266.666504,4400.000000,4334.615234,4280.769043,4267.179688,4376.666504,3999.487061,4080.641113,0.000000,2.000000,43.000000,,,,0.000000,4.000000,4.000000,0.000000,4.000000,1.000000,0.000000,0.000000,0.000000,0.000000,0.000000,4.000000,2.000000,4.000000,4.000000,0.000000,,,,,,,,,,,,,,,,,,,,,,,,,,,,,,,,,,,,,,,,,,,,,,,,,,,,,,,,,,,,,,,,,,,,,,,,,,,,,,,,,,,,,,
1738703663.543130,1738703663.544124,27.000000,0.000000,3642.051270,3473.461426,4247.820313,4468.974121,4148.974121,4291.538574,4264.358887,4401.538574,4337.179688,4278.589844,4280.128418,4379.230957,4014.230713,4101.922852,0.000000,2.000000,43.000000,,,,0.000000,4.000000,4.000000,0.000000,4.000000,1.000000,0.000000,0.000000,0.000000,0.000000,0.000000,4.000000,2.000000,4.000000,4.000000,0.000000,,,,,,,,,,,,,,,,,,,,,,,,,,,,,,,,,,,,,,,,,,,,,,,,,,,,,,,,,,,,,,,,,,,,,,,,,,,,,,,,,,,,,,
1738703663.550938,1738703663.551833,28.000000,0.000000,3646.923096,3467.564209,4247.948730,4444.487305,4150.128418,4290.512695,4257.820313,4404.487305,4340.000000,4280.256348,4282.051270,4378.205078,4017.179443,4110.641113,0.000000,2.000000,43.000000,,,,0.000000,4.000000,4.000000,0.000000,4.000000,1.000000,0.000000,0.000000,0.000000,0.000000,0.000000,4.000000,2.000000,4.000000,4.000000,0.000000,,,,,,,,,,,,,,,,,,,,,,,,,,,,,,,,,,,,,,,,,,,,,,,,,,,,,,,,,,,,,,,,,,,,,,,,,,,,,,,,,,,,,,
1738703663.558746,1738703663.559641,29.000000,0.000000,3642.307617,3471.794922,4253.846191,4408.333496,4159.487305,4291.410156,4252.051270,4403.974121,4337.051270,4281.025879,4266.282227,4375.512695,4002.179443,4096.666504,0.000000,2.000000,43.000000,,,,0.000000,4.000000,4.000000,0.000000,4.000000,1.000000,0.000000,0.000000,0.000000,0.000000,0.000000,4.000000,2.000000,4.000000,4.000000,0.000000,,,,,,,,,,,,,,,,,,,,,,,,,,,,,,,,,,,,,,,,,,,,,,,,,,,,,,,,,,,,,,,,,,,,,,,,,,,,,,,,,,,,,,
1738703663.566555,1738703663.567350,30.000000,0.000000,3645.512939,3499.871826,4254.743652,4408.717773,4151.922852,4293.589844,4256.282227,4401.922852,4336.282227,4279.230957,4260.128418,4376.794922,3990.641113,4087.051270,0.000000,2.000000,43.000000,,,,0.000000,4.000000,4.000000,0.000000,4.000000,1.000000,0.000000,0.000000,0.000000,0.000000,0.000000,4.000000,2.000000,4.000000,4.000000,0.000000,,,,,,,,,,,,,,,,,,,,,,,,,,,,,,,,,,,,,,,,,,,,,,,,,,,,,,,,,,,,,,,,,,,,,,,,,,,,,,,,,,,,,,
1738703663.574363,1738703663.575158,31.000000,0.000000,3649.487061,3504.230713,4255.897461,4411.794922,4136.538574,4293.846191,4262.051270,4404.487305,4338.846191,4280.769043,4266.794922,4381.153809,3994.871826,4094.230713,0.000000,2.000000,43.000000,,,,0.000000,4.000000,4.000000,0.000000,4.000000,1.000000,0.000000,0.000000,0.000000,0.000000,0.000000,4.000000,2.000000,4.000000,4.000000,0.000000,,,,,,,,,,,,,,,,,858.925476,85.894760,17.266506,6.431953,4.504313,1096.211304,106.609337,18.566116,6.290530,5.444297,0.432551,0.323395,0.159533,0.094324,0.041889,190.248703,30.826406,23.699749,6.090446,3.577923,42.027767,10.050816,9.153787,1.933746,1.479566,0.838553,0.130665,0.120398,0.052827,0.031964,4.005423,2.452427,2.595086,0.697517,0.528245,0.034477,0.052990,0.019562,0.028112,0.023721,0.092492,0.052386,0.037113,0.030228,0.041349,0.178002,0.019304,0.027300,0.023716,0.038213,238.127991,26.803116,6.224066,2.716730,2.192568,10.060692,1.693689,0.600002,0.233394,0.255945,1140.416626,101.313637,20.771555,6.825787,5.073864,744.490601,82.005859,15.686694,5.211337,4.280569
1738703663.582171,1738703663.582867,32.000000,0.000000,3626.410156,3467.692383,4255.897461,4362.436035,4154.487305,4291.025879,4260.128418,4405.769043,4338.077148,4275.769043,4252.820313,4378.846191,3978.461426,4084.743652,0.000000,2.000000,43.000000,,,,0.000000,4.000000,4.000000,0.000000,4.000000,1.000000,0.000000,0.000000,0.000000,0.000000,0.000000,4.000000,2.000000,4.000000,4.000000,0.000000,,,,,,,,,,,,,,,,,,,,,,,,,,,,,,,,,,,,,,,,,,,,,,,,,,,,,,,,,,,,,,,,,,,,,,,,,,,,,,,,,,,,,,
1738703663.589979,1738703663.590675,33.000000,0.000000,3602.051270,3448.846191,4261.282227,4334.487305,4172.179688,4292.820313,4263.205078,4402.948730,4338.461426,4267.436035,4245.512695,4378.717773,3969.615479,4076.153809,0.000000,2.000000,43.000000,,,,0.000000,4.000000,4.000000,0.000000,4.000000,1.000000,0.000000,0.000000,0.000000,0.000000,0.000000,4.000000,2.000000,4.000000,4.000000,0.000000,,,,,,,,,,,,,,,,,,,,,,,,,,,,,,,,,,,,,,,,,,,,,,,,,,,,,,,,,,,,,,,,,,,,,,,,,,,,,,,,,,,,,,
1738703663.597788,1738703663.598384,34.000000,0.000000,3593.589844,3454.743652,4264.102539,4353.205078,4159.230957,4295.000000,4266.153809,4404.487305,4342.820313,4274.743652,4249.102539,4378.077148,3977.307617,4075.897461,0.000000,2.000000,43.000000,,,,0.000000,4.000000,4.000000,0.000000,4.000000,1.000000,0.000000,0.000000,0.000000,0.000000,0.000000,4.000000,2.000000,4.000000,4.000000,0.000000,,,,,,,,,,,,,,,,,,,,,,,,,,,,,,,,,,,,,,,,,,,,,,,,,,,,,,,,,,,,,,,,,,,,,,,,,,,,,,,,,,,,,,
1738703663.605596,1738703663.606292,35.000000,0.000000,3576.538574,3435.256348,4261.153809,4326.794922,4151.410156,4292.692383,4261.922852,4407.436035,4340.256348,4283.974121,4232.179688,4370.256348,3948.333252,4053.076904,0.000000,2.000000,43.000000,,,,0.000000,4.000000,4.000000,0.000000,4.000000,1.000000,0.000000,0.000000,0.000000,0.000000,0.000000,4.000000,2.000000,4.000000,4.000000,0.000000,,,,,,,,,,,,,,,,,,,,,,,,,,,,,,,,,,,,,,,,,,,,,,,,,,,,,,,,,,,,,,,,,,,,,,,,,,,,,,,,,,,,,,
1738703663.613404,1738703663.614101,36.000000,0.000000,3567.435791,3421.153809,4266.410156,4325.128418,4151.666504,4293.974121,4260.641113,4406.410156,4336.922852,4277.051270,4220.769043,4375.897461,3921.923096,4037.820557,0.000000,2.000000,43.000000,,,,0.000000,4.000000,4.000000,0.000000,4.000000,1.000000,0.000000,0.000000,0.000000,0.000000,0.000000,4.000000,2.000000,4.000000,4.000000,0.000000,,,,,,,,,,,,,,,,,,,,,,,,,,,,,,,,,,,,,,,,,,,,,,,,,,,,,,,,,,,,,,,,,,,,,,,,,,,,,,,,,,,,,,
1738703663.621212,1738703663.622009,37.000000,0.000000,3577.307617,3437.179443,4252.948730,4437.307617,4142.436035,4293.589844,4256.666504,4400.769043,4338.717773,4273.589844,4230.256348,4372.307617,3941.281982,4048.589844,0.000000,2.000000,43.000000,,,,0.000000,4.000000,4.000000,0.000000,4.000000,1.000000,0.000000,0.000000,0.000000,0.000000,0.000000,4.000000,2.000000,4.000000,4.000000,0.000000,,,,,,,,,,,,,,,,,,,,,,,,,,,,,,,,,,,,,,,,,,,,,,,,,,,,,,,,,,,,,,,,,,,,,,,,,,,,,,,,,,,,,,
1738703663.629021,1738703663.629917,38.000000,0.000000,3554.230713,3403.205078,4244.871582,4500.128418,4150.512695,4293.205078,4252.179688,4401.282227,4337.179688,4276.794922,4215.256348,4359.358887,3920.897461,4027.179443,0.000000,2.000000,43.000000,,,,0.000000,4.000000,4.000000,0.000000,4.000000,1.000000,0.000000,0.000000,0.000000,0.000000,0.000000,4.000000,2.000000,4.000000,4.000000,0.000000,,,,,,,,,,,,,,,,,,,,,,,,,,,,,,,,,,,,,,,,,,,,,,,,,,,,,,,,,,,,,,,,,,,,,,,,,,,,,,,,,,,,,,
1738703663.636829,1738703663.637726,39.000000,0.000000,3513.333252,3351.153809,4256.922852,4443.846191,4167.051270,4299.358887,4253.717773,4405.128418,4335.000000,4272.307617,4184.358887,4361.025879,3859.358887,3979.230713,0.000000,2.000000,43.000000,,,,0.000000,4.000000,4.000000,0.000000,4.000000,1.000000,0.000000,0.000000,0.000000,0.000000,0.000000,4.000000,2.000000,4.000000,4.000000,0.000000,,,,,,,,,,,,,,,,,,,,,,,,,,,,,,,,,,,,,,,,,,,,,,,,,,,,,,,,,,,,,,,,,,,,,,,,,,,,,,,,,,,,,,
1738703663.644637,1738703663.645535,40.000000,0.000000,3534.487061,3385.000000,4266.922852,4438.205078,4149.230957,4302.051270,4254.871582,4403.717773,4336.794922,4275.128418,4197.563965,4376.666504,3870.384521,3993.846191,0.000000,2.000000,43.000000,,,,0.000000,4.000000,4.000000,0.000000,4.000000,1.000000,0.000000,0.000000,0.000000,0.000000,0.000000,4.000000,2.000000,4.000000,4.000000,0.000000,,,,,,,,,,,,,,,,,,,,,,,,,,,,,,,,,,,,,,,,,,,,,,,,,,,,,,,,,,,,,,,,,,,,,,,,,,,,,,,,,,,,,,
1738703663.652445,1738703663.653343,41.000000,0.000000,3561.153809,3409.230713,4253.461426,4461.794922,4136.282227,4300.000000,4254.615234,4400.000000,4333.589844,4282.820313,4211.153809,4370.256348,3900.128174,4020.512939,0.000000,2.000000,43.000000,,,,0.000000,4.000000,4.000000,0.000000,4.000000,1.000000,0.000000,0.000000,0.000000,0.000000,0.000000,4.000000,2.000000,4.000000,4.000000,0.000000,,,,,,,,,,,,,,,,,,,,,,,,,,,,,,,,,,,,,,,,,,,,,,,,,,,,,,,,,,,,,,,,,,,,,,,,,,,,,,,,,,,,,,
1738703663.660254,1738703663.661052,42.000000,0.000000,3531.410156,3352.564209,4250.384766,4402.820313,4152.692383,4297.307617,4257.051270,4401.794922,4328.974121,4272.051270,4185.512695,4357.179688,3864.230713,3982.692383,0.000000,2.000000,43.000000,,,,0.000000,4.000000,4.000000,0.000000,4.000000,1.000000,0.000000,0.000000,0.000000,0.000000,0.000000,4.000000,2.000000,4.000000,4.000000,0.000000,,,,,,,,,,,,,,,,,,,,,,,,,,,,,,,,,,,,,,,,,,,,,,,,,,,,,,,,,,,,,,,,,,,,,,,,,,,,,,,,,,,,,,
1738703663.668062,1738703663.668860,43.000000,0.000000,3522.307617,3327.820557,4256.922852,4351.282227,4153.589844,4296.410156,4262.307617,4407.051270,4331.922852,4262.563965,4179.615234,4362.820313,3853.333252,3964.487061,0.000000,2.000000,43.000000,,,,0.000000,4.000000,4.000000,0.000000,4.000000,1.000000,0.000000,0.000000,0.000000,0.000000,0.000000,4.000000,2.000000,4.000000,4.000000,0.000000,,,,,,,,,,,,,,,,,,,,,,,,,,,,,,,,,,,,,,,,,,,,,,,,,,,,,,,,,,,,,,,,,,,,,,,,,,,,,,,,,,,,,,
1738703663.675870,1738703663.676568,44.000000,0.000000,3563.718018,3374.743652,4257.820313,4372.820313,4133.717773,4299.615234,4268.846191,4402.820313,4335.512695,4276.153809,4201.282227,4369.871582,3892.051270,4002.820557,0.000000,2.000000,43.000000,,,,0.000000,4.000000,4.000000,0.000000,4.000000,1.000000,0.000000,0.000000,0.000000,0.000000,0.000000,4.000000,2.000000,4.000000,4.000000,0.000000,,,,,,,,,,,,,,,,,,,,,,,,,,,,,,,,,,,,,,,,,,,,,,,,,,,,,,,,,,,,,,,,,,,,,,,,,,,,,,,,,,,,,,
1738703663.683679,1738703663.684477,45.000000,0.000000,3586.538574,3402.051270,4259.743652,4385.128418,4132.051270,4303.974121,4273.717773,4399.102539,4334.871582,4283.974121,4209.102539,4372.179688,3901.153809,4020.000000,0.000000,2.000000,43.000000,,,,0.000000,4.000000,4.000000,0.000000,4.000000,1.000000,0.000000,0.000000,0.000000,0.000000,0.000000,4.000000,2.000000,4.000000,4.000000,0.000000,,,,,,,,,,,,,,,,,,,,,,,,,,,,,,,,,,,,,,,,,,,,,,,,,,,,,,,,,,,,,,,,,,,,,,,,,,,,,,,,,,,,,,
1738703663.691487,1738703663.692285,46.000000,0.000000,3602.307617,3408.846191,4260.641113,4369.871582,4143.717773,4300.512695,4269.102539,4401.794922,4333.589844,4274.102539,4223.461426,4376.410156,3913.076904,4027.051270,0.000000,2.000000,43.000000,,,,0.000000,4.000000,4.000000,0.000000,4.000000,1.000000,0.000000,0.000000,0.000000,0.000000,0.000000,4.000000,2.000000,4.000000,4.000000,0.000000,,,,,,,,,,,,,,,,,,,,,,,,,,,,,,,,,,,,,,,,,,,,,,,,,,,,,,,,,,,,,,,,,,,,,,,,,,,,,,,,,,,,,,
1738703663.699295,1738703663.700193,47.000000,0.000000,3656.410156,3445.384521,4258.461426,4371.922852,4142.436035,4300.897461,4268.077148,4404.358887,4333.717773,4273.846191,4255.256348,4383.333496,3969.358887,4075.256348,0.000000,2.000000,43.000000,,,,0.000000,4.000000,4.000000,0.000000,4.000000,1.000000,0.000000,0.000000,0.000000,0.000000,0.000000,4.000000,2.000000,4.000000,4.000000,0.000000,1.000000,0.000000,0.000000,0.000000,0.000000,0.000000,0.000000,0.000000,0.000000,0.000000,0.000000,0.000000,0.000000,2.000000,0.000000,0.000000,917.388550,81.034790,21.663544,6.433688,4.750894,1191.711670,100.118637,22.614614,6.555262,5.780967,0.562937,0.374818,0.203656,0.114946,0.047629,199.012375,30.162104,27.355749,6.667860,3.544212,45.789940,11.241493,10.587233,2.153818,1.760520,1.013420,0.154620,0.138609,0.062117,0.036604,5.344145,3.406212,3.449499,1.048280,0.647908,0.036642,0.075072,0.023698,0.023928,0.024840,0.060322,0.046952,0.027609,0.028561,0.039111,0.189338,0.020597,0.034635,0.026809,0.041612,260.210724,25.255400,6.993367,2.570292,2.239508,10.521940,1.604484,0.732567,0.220541,0.268352,1247.099365,94.749924,24.160589,6.421768,5.230350,785.934814,77.740829,19.069418,5.190757,4.534617
1738703663.707103,1738703663.708002,48.000000,0.000000,3691.025635,3476.153809,4258.333496,4375.384766,4138.974121,4307.051270,4275.641113,4401.666504,4333.333496,4282.051270,4259.230957,4383.717773,3997.307617,4105.897461,0.000000,2.000000,43.000000,,,,0.000000,4.000000,4.000000,0.000000,4.000000,1.000000,0.000000,0.000000,0.000000,0.000000,0.000000,4.000000,2.000000,4.000000,4.000000,0.000000,,,,,,,,,,,,,,,,,,,,,,,,,,,,,,,,,,,,,,,,,,,,,,,,,,,,,,,,,,,,,,,,,,,,,,,,,,,,,,,,,,,,,,
1738703663.714912,1738703663.715810,49.000000,0.000000,3667.948730,3453.205078,4258.333496,4342.436035,4133.717773,4306.410156,4282.179688,4401.410156,4333.333496,4281.153809,4240.256348,4378.717773,3974.230713,4086.153809,0.000000,2.000000,43.000000,,,,0.000000,4.000000,4.000000,0.000000,4.000000,1.000000,0.000000,0.000000,0.000000,0.000000,0.000000,4.000000,2.000000,4.000000,4.000000,0.000000,,,,,,,,,,,,,,,,,,,,,,,,,,,,,,,,,,,,,,,,,,,,,,,,,,,,,,,,,,,,,,,,,,,,,,,,,,,,,,,,,,,,,,
1738703663.722720,1738703663.723619,50.000000,0.000000,3651.281982,3426.025635,4257.179688,4305.897461,4121.922852,4303.333496,4288.333496,4406.410156,4332.179688,4277.948730,4236.794922,4376.794922,3965.000000,4071.025635,0.000000,2.000000,43.000000,,,,0.000000,4.000000,4.000000,0.000000,4.000000,1.000000,0.000000,0.000000,0.000000,0.000000,0.000000,4.000000,2.000000,4.000000,4.000000,0.000000,,,,,,,,,,,,,,,,,,,,,,,,,,,,,,,,,,,,,,,,,,,,,,,,,,,,,,,,,,,,,,,,,,,,,,,,,,,,,,,,,,,,,,
1738703663.730528,1738703663.731327,51.000000,0.000000,3687.692383,3456.538574,4253.846191,4319.230957,4118.205078,4303.846191,4294.358887,4408.974121,4331.410156,4279.615234,4248.846191,4381.153809,3983.974365,4091.410156,0.000000,2.000000,43.000000,,,,0.000000,4.000000,4.000000,0.000000,4.000000,1.000000,0.000000,0.000000,0.000000,0.000000,0.000000,4.000000,2.000000,4.000000,4.000000,0.000000,,,,,,,,,,,,,,,,,,,,,,,,,,,,,,,,,,,,,,,,,,,,,,,,,,,,,,,,,,,,,,,,,,,,,,,,,,,,,,,,,,,,,,
1738703663.738336,1738703663.739136,52.000000,0.000000,3721.410156,3486.153809,4251.666504,4331.922852,4122.948730,4303.717773,4298.974121,4407.179688,4330.897461,4280.256348,4263.974121,4384.230957,4006.153809,4121.153809,0.000000,2.000000,43.000000,,,,0.000000,4.000000,4.000000,0.000000,4.000000,1.000000,0.000000,0.000000,0.000000,0.000000,0.000000,4.000000,2.000000,4.000000,4.000000,0.000000,,,,,,,,,,,,,,,,,,,,,,,,,,,,,,,,,,,,,,,,,,,,,,,,,,,,,,,,,,,,,,,,,,,,,,,,,,,,,,,,,,,,,,
1738703663.746145,1738703663.746844,53.000000,0.000000,3726.538574,3482.307617,4253.846191,4303.974121,4119.102539,4301.282227,4296.410156,4405.256348,4329.615234,4279.615234,4278.846191,4383.589844,4031.410156,4134.102539,0.000000,2.000000,43.000000,,,,0.000000,4.000000,4.000000,0.000000,4.000000,1.000000,0.000000,0.000000,0.000000,0.000000,0.000000,4.000000,2.000000,4.000000,4.000000,0.000000,,,,,,,,,,,,,,,,,,,,,,,,,,,,,,,,,,,,,,,,,,,,,,,,,,,,,,,,,,,,,,,,,,,,,,,,,,,,,,,,,,,,,,
1738703663.753953,1738703663.754653,54.000000,0.000000,3743.333252,3500.897461,4252.436035,4283.205078,4114.487305,4301.666504,4295.897461,4408.589844,4329.743652,4280.128418,4281.410156,4381.666504,4043.461426,4136.794922,0.000000,2.000000,43.000000,,,,0.000000,4.000000,4.000000,0.000000,4.000000,1.000000,0.000000,0.000000,0.000000,0.000000,0.000000,4.000000,2.000000,4.000000,4.000000,0.000000,,,,,,,,,,,,,,,,,,,,,,,,,,,,,,,,,,,,,,,,,,,,,,,,,,,,,,,,,,,,,,,,,,,,,,,,,,,,,,,,,,,,,,
1738703663.761761,1738703663.762361,55.000000,0.000000,3756.025635,3512.307617,4252.051270,4270.384766,4130.384766,4302.051270,4301.794922,4411.794922,4331.922852,4281.153809,4271.410156,4381.666504,4031.794922,4135.641113,0.000000,2.000000,43.000000,,,,0.000000,4.000000,4.000000,0.000000,4.000000,1.000000,0.000000,0.000000,0.000000,0.000000,0.000000,4.000000,2.000000,4.000000,4.000000,0.000000,,,,,,,,,,,,,,,,,,,,,,,,,,,,,,,,,,,,,,,,,,,,,,,,,,,,,,,,,,,,,,,,,,,,,,,,,,,,,,,,,,,,,,
1738703663.769569,1738703663.770170,56.000000,0.000000,3734.102539,3475.128174,4249.743652,4229.487305,4136.666504,4298.205078,4302.692383,4407.179688,4334.102539,4280.256348,4259.230957,4375.384766,4015.897461,4122.307617,0.000000,2.000000,43.000000,,,,0.000000,4.000000,4.000000,0.000000,4.000000,1.000000,0.000000,0.000000,0.000000,0.000000,0.000000,4.000000,2.000000,4.000000,4.000000,0.000000,,,,,,,,,,,,,,,,,,,,,,,,,,,,,,,,,,,,,,,,,,,,,,,,,,,,,,,,,,,,,,,,,,,,,,,,,,,,,,,,,,,,,,
1738703663.777377,1738703663.777878,57.000000,0.000000,3731.025635,3470.256348,4252.692383,4204.743652,4119.358887,4296.794922,4296.666504,4402.692383,4332.820313,4279.358887,4261.025879,4376.794922,4019.487061,4118.717773,0.000000,2.000000,43.000000,,,,0.000000,4.000000,4.000000,0.000000,4.000000,1.000000,0.000000,0.000000,0.000000,0.000000,0.000000,4.000000,2.000000,4.000000,4.000000,0.000000,,,,,,,,,,,,,,,,,,,,,,,,,,,,,,,,,,,,,,,,,,,,,,,,,,,,,,,,,,,,,,,,,,,,,,,,,,,,,,,,,,,,,,
1738703663.785186,1738703663.785687,58.000000,0.000000,3764.358887,3515.769287,4252.436035,4224.487305,4122.179688,4303.077148,4297.179688,4406.922852,4331.025879,4280.384766,4271.410156,4381.666504,4030.384521,4136.794922,0.000000,2.000000,43.000000,,,,0.000000,4.000000,4.000000,0.000000,4.000000,1.000000,0.000000,0.000000,0.000000,0.000000,0.000000,4.000000,2.000000,4.000000,4.000000,0.000000,,,,,,,,,,,,,,,,,,,,,,,,,,,,,,,,,,,,,,,,,,,,,,,,,,,,,,,,,,,,,,,,,,,,,,,,,,,,,,,,,,,,,,
1738703663.792994,1738703663.793395,59.000000,0.000000,3778.333252,3538.974365,4254.743652,4233.205078,4137.179688,4303.846191,4295.769043,4407.692383,4329.743652,4274.871582,4276.794922,4382.563965,4037.948730,4150.641113,0.000000,2.000000,43.000000,,,,0.000000,4.000000,4.000000,0.000000,4.000000,1.000000,0.000000,0.000000,0.000000,0.000000,0.000000,4.000000,2.000000,4.000000,4.000000,0.000000,,,,,,,,,,,,,,,,,,,,,,,,,,,,,,,,,,,,,,,,,,,,,,,,,,,,,,,,,,,,,,,,,,,,,,,,,,,,,,,,,,,,,,
1738703663.800802,1738703663.801204,60.000000,0.000000,3765.000000,3519.871826,4253.333496,4200.128418,4128.077148,4297.948730,4282.820313,4401.282227,4330.384766,4266.282227,4282.692383,4381.282227,4051.281982,4147.692383,0.000000,2.000000,43.000000,,,,0.000000,4.000000,4.000000,0.000000,4.000000,1.000000,0.000000,0.000000,0.000000,0.000000,0.000000,4.000000,2.000000,4.000000,4.000000,0.000000,,,,,,,,,,,,,,,,,,,,,,,,,,,,,,,,,,,,,,,,,,,,,,,,,,,,,,,,,,,,,,,,,,,,,,,,,,,,,,,,,,,,,,
1738703663.808611,1738703663.808912,61.000000,0.000000,3759.615479,3505.384521,4255.897461,4177.051270,4115.769043,4298.846191,4275.128418,4402.051270,4333.461426,4267.436035,4285.384766,4380.512695,4050.512939,4137.179688,0.000000,2.000000,43.000000,,,,0.000000,4.000000,4.000000,0.000000,4.000000,1.000000,0.000000,0.000000,0.000000,0.000000,0.000000,4.000000,2.000000,4.000000,4.000000,0.000000,,,,,,,,,,,,,,,,,,,,,,,,,,,,,,,,,,,,,,,,,,,,,,,,,,,,,,,,,,,,,,,,,,,,,,,,,,,,,,,,,,,,,,
1738703663.816419,1738703663.816720,62.000000,0.000000,3780.512939,3536.281982,4254.743652,4200.769043,4119.487305,4299.615234,4275.512695,4408.461426,4335.384766,4276.410156,4285.128418,4379.743652,4039.487061,4143.205078,0.000000,2.000000,43.000000,,,,0.000000,4.000000,4.000000,0.000000,4.000000,1.000000,0.000000,0.000000,0.000000,0.000000,0.000000,4.000000,2.000000,4.000000,4.000000,0.000000,,,,,,,,,,,,,,,,,,,,,,,,,,,,,,,,,,,,,,,,,,,,,,,,,,,,,,,,,,,,,,,,,,,,,,,,,,,,,,,,,,,,,,
1738703663.824227,1738703663.824429,63.000000,0.000000,3796.153809,3556.025635,4251.666504,4204.743652,4126.922852,4294.230957,4274.102539,4409.102539,4332.692383,4280.128418,4280.641113,4380.128418,4038.076904,4154.743652,0.000000,2.000000,43.000000,,,,0.000000,4.000000,4.000000,0.000000,4.000000,1.000000,0.000000,0.000000,0.000000,0.000000,0.000000,4.000000,2.000000,4.000000,4.000000,0.000000,,,,,,,,,,,,,,,,,848.527405,75.104134,27.521276,6.340487,4.694072,1128.705566,92.457375,28.252726,6.698674,5.755617,0.738002,0.447390,0.247366,0.133141,0.054778,207.561478,29.908943,30.203018,6.946290,3.473505,43.797077,11.188180,10.775884,2.150440,1.863287,1.083920,0.171347,0.147442,0.066082,0.040182,6.848443,4.457899,4.391342,1.465845,0.738931,0.048131,0.095835,0.032031,0.022068,0.025789,0.064592,0.056203,0.024512,0.031404,0.037468,0.179696,0.021355,0.041453,0.028273,0.041159,249.781219,23.055782,8.235160,2.395719,2.175149,9.720660,1.524101,0.906147,0.199966,0.264400,1195.513306,85.532173,29.307871,6.167054,5.112900,727.881714,71.157845,24.030045,5.136316,4.476926
1738703663.832035,1738703663.832337,64.000000,0.000000,3786.281982,3532.948730,4247.051270,4173.846191,4130.128418,4290.384766,4267.820313,4406.153809,4330.641113,4271.666504,4279.230957,4381.410156,4051.410156,4152.436035,0.000000,2.000000,43.000000,,,,0.000000,4.000000,4.000000,0.000000,4.000000,1.000000,0.000000,0.000000,0.000000,0.000000,0.000000,4.000000,2.000000,4.000000,4.000000,0.000000,,,,,,,,,,,,,,,,,,,,,,,,,,,,,,,,,,,,,,,,,,,,,,,,,,,,,,,,,,,,,,,,,,,,,,,,,,,,,,,,,,,,,,
1738703663.839844,1738703663.840145,65.000000,0.000000,3790.128174,3531.538574,4247.307617,4163.333496,4124.615234,4292.179688,4264.102539,4404.487305,4333.717773,4266.922852,4284.358887,4380.128418,4062.435791,4152.436035,4637.000000,2.000000,43.000000,,,,0.000000,4.000000,4.000000,0.000000,4.000000,1.000000,0.000000,0.000000,0.000000,0.000000,0.000000,4.000000,2.000000,4.000000,4.000000,0.000000,,,,,,,,,,,,,,,,,,,,,,,,,,,,,,,,,,,,,,,,,,,,,,,,,,,,,,,,,,,,,,,,,,,,,,,,,,,,,,,,,,,,,,
1738703663.847652,1738703663.848054,66.000000,0.000000,3804.871826,3558.974365,4245.384766,4161.282227,4116.666504,4291.666504,4265.256348,4403.461426,4335.000000,4276.025879,4281.025879,4377.948730,4053.461426,4153.589844,5726.000000,2.000000,43.000000,,,,0.000000,4.000000,4.000000,0.000000,4.000000,1.000000,0.000000,0.000000,0.000000,0.000000,0.000000,4.000000,2.000000,4.000000,4.000000,0.000000,,,,,,,,,,,,,,,,,,,,,,,,,,,,,,,,,,,,,,,,,,,,,,,,,,,,,,,,,,,,,,,,,,,,,,,,,,,,,,,,,,,,,,
1738703663.855460,1738703663.855862,67.000000,0.000000,3796.025635,3559.487061,4241.153809,4152.307617,4120.897461,4289.487305,4266.410156,4404.358887,4331.282227,4281.282227,4277.563965,4376.025879,4039.871826,4145.641113,5935.000000,2.000000,43.000000,,,,0.000000,4.000000,4.000000,0.000000,4.000000,1.000000,0.000000,0.000000,0.000000,0.000000,0.000000,4.000000,2.000000,4.000000,4.000000,0.000000,,,,,,,,,,,,,,,,,,,,,,,,,,,,,,,,,,,,,,,,,,,,,,,,,,,,,,,,,,,,,,,,,,,,,,,,,,,,,,,,,,,,,,
1738703663.863269,1738703663.863671,68.000000,0.000000,3783.333252,3550.256348,4243.589844,4148.333496,4122.820313,4287.692383,4262.179688,4403.974121,4329.487305,4276.282227,4276.666504,4378.974121,4031.410156,4136.922852,323.000000,2.000000,43.000000,,,,0.000000,4.000000,4.000000,0.000000,4.000000,1.000000,0.000000,0.000000,0.000000,0.000000,0.000000,4.000000,2.000000,4.000000,4.000000,0.000000,,,,,,,,,,,,,,,,,,,,,,,,,,,,,,,,,,,,,,,,,,,,,,,,,,,,,,,,,,,,,,,,,,,,,,,,,,,,,,,,,,,,,,
1738703663.871077,1738703663.871379,69.000000,0.000000,3791.281982,3560.000000,4245.897461,4134.230957,4117.563965,4289.230957,4261.282227,4401.282227,4331.153809,4276.410156,4276.922852,4380.000000,4042.179443,4139.871582,0.000000,2.000000,43.000000,,,,0.000000,4.000000,4.000000,0.000000,4.000000,1.000000,0.000000,0.000000,0.000000,0.000000,0.000000,4.000000,2.000000,4.000000,4.000000,0.000000,,,,,,,,,,,,,,,,,,,,,,,,,,,,,,,,,,,,,,,,,,,,,,,,,,,,,,,,,,,,,,,,,,,,,,,,,,,,,,,,,,,,,,
1738703663.878885,1738703663.879287,70.000000,0.000000,3802.435791,3560.256348,4246.282227,4106.922852,4126.153809,4290.641113,4264.358887,4402.179688,4332.563965,4283.589844,4285.641113,4379.487305,4064.358887,4148.461426,0.000000,2.000000,43.000000,,,,0.000000,4.000000,4.000000,0.000000,4.000000,1.000000,0.000000,0.000000,0.000000,0.000000,0.000000,4.000000,2.000000,4.000000,4.000000,0.000000,,,,,,,,,,,,,,,,,,,,,,,,,,,,,,,,,,,,,,,,,,,,,,,,,,,,,,,,,,,,,,,,,,,,,,,,,,,,,,,,,,,,,,
1738703663.886693,1738703663.887096,71.000000,0.000000,3805.384521,3566.666748,4242.692383,4097.307617,4136.538574,4289.487305,4264.871582,4405.000000,4332.820313,4281.153809,4286.282227,4376.025879,4053.589844,4148.846191,0.000000,2.000000,43.000000,,,,0.000000,4.000000,4.000000,0.000000,4.000000,1.000000,0.000000,0.000000,0.000000,0.000000,0.000000,4.000000,2.000000,4.000000,4.000000,0.000000,,,,,,,,,,,,,,,,,,,,,,,,,,,,,,,,,,,,,,,,,,,,,,,,,,,,,,,,,,,,,,,,,,,,,,,,,,,,,,,,,,,,,,
1738703663.894502,1738703663.895004,72.000000,0.000000,3804.615479,3578.718018,4243.717773,4089.615479,4132.307617,4287.820313,4263.974121,4404.358887,4331.025879,4270.512695,4278.717773,4377.563965,4027.820557,4142.563965,0.000000,2.000000,43.000000,,,,0.000000,4.000000,4.000000,0.000000,4.000000,1.000000,0.000000,0.000000,0.000000,0.000000,0.000000,4.000000,2.000000,4.000000,4.000000,0.000000,,,,,,,,,,,,,,,,,,,,,,,,,,,,,,,,,,,,,,,,,,,,,,,,,,,,,,,,,,,,,,,,,,,,,,,,,,,,,,,,,,,,,,
1738703663.902310,1738703663.902813,73.000000,0.000000,3820.769287,3589.615479,4242.948730,4091.153809,4121.410156,4287.820313,4266.538574,4403.846191,4331.410156,4271.025879,4298.077148,4382.948730,4062.051270,4161.794922,0.000000,2.000000,43.000000,,,,0.000000,4.000000,4.000000,0.000000,4.000000,1.000000,0.000000,0.000000,0.000000,0.000000,0.000000,4.000000,2.000000,4.000000,4.000000,0.000000,,,,,,,,,,,,,,,,,,,,,,,,,,,,,,,,,,,,,,,,,,,,,,,,,,,,,,,,,,,,,,,,,,,,,,,,,,,,,,,,,,,,,,
1738703663.910118,1738703663.910621,74.000000,0.000000,3862.179443,3625.512939,4246.794922,4123.461426,4124.358887,4288.846191,4266.153809,4404.871582,4335.897461,4280.000000,4322.948730,4388.077148,4117.563965,4204.102539,6087.000000,2.000000,43.000000,,,,0.000000,4.000000,4.000000,0.000000,4.000000,1.000000,0.000000,0.000000,0.000000,0.000000,0.000000,4.000000,2.000000,4.000000,4.000000,0.000000,,,,,,,,,,,,,,,,,,,,,,,,,,,,,,,,,,,,,,,,,,,,,,,,,,,,,,,,,,,,,,,,,,,,,,,,,,,,,,,,,,,,,,
1738703663.917926,1738703663.918429,75.000000,0.000000,3882.307617,3652.692383,4242.820313,4135.641113,4136.410156,4290.000000,4259.615234,4405.256348,4336.922852,4280.641113,4313.461426,4385.384766,4115.256348,4210.000000,5688.000000,2.000000,43.000000,,,,0.000000,4.000000,4.000000,0.000000,4.000000,1.000000,0.000000,0.000000,0.000000,0.000000,0.000000,4.000000,2.000000,4.000000,4.000000,0.000000,,,,,,,,,,,,,,,,,,,,,,,,,,,,,,,,,,,,,,,,,,,,,,,,,,,,,,,,,,,,,,,,,,,,,,,,,,,,,,,,,,,,,,
1738703663.925735,1738703663.926138,76.000000,0.000000,3878.205078,3651.025635,4240.000000,4122.692383,4136.922852,4288.461426,4264.230957,4405.000000,4333.461426,4275.769043,4317.307617,4387.051270,4117.948730,4205.512695,3847.000000,2.000000,43.000000,,,,0.000000,4.000000,4.000000,0.000000,4.000000,1.000000,0.000000,0.000000,0.000000,0.000000,0.000000,4.000000,2.000000,4.000000,4.000000,0.000000,,,,,,,,,,,,,,,,,,,,,,,,,,,,,,,,,,,,,,,,,,,,,,,,,,,,,,,,,,,,,,,,,,,,,,,,,,,,,,,,,,,,,,
1738703663.933543,1738703663.933946,77.000000,0.000000,3892.051270,3660.897461,4238.461426,4132.436035,4135.128418,4286.538574,4263.205078,4406.794922,4333.205078,4278.589844,4338.846191,4392.051270,4151.282227,4229.102539,728.000000,2.000000,43.000000,,,,0.000000,4.000000,4.000000,0.000000,4.000000,1.000000,0.000000,0.000000,0.000000,0.000000,0.000000,4.000000,2.000000,4.000000,4.000000,0.000000,,,,,,,,,,,,,,,,,,,,,,,,,,,,,,,,,,,,,,,,,,,,,,,,,,,,,,,,,,,,,,,,,,,,,,,,,,,,,,,,,,,,,,
1738703663.941351,1738703663.941655,78.000000,0.000000,3918.205078,3699.487061,4244.743652,4168.974121,4138.717773,4288.974121,4227.436035,4406.282227,4334.230957,4280.256348,4332.948730,4394.871582,4150.512695,4242.051270,6087.000000,2.000000,43.000000,,,,0.000000,4.000000,4.000000,0.000000,4.000000,1.000000,0.000000,0.000000,0.000000,0.000000,0.000000,4.000000,2.000000,4.000000,4.000000,0.000000,,,,,,,,,,,,,,,,,,,,,,,,,,,,,,,,,,,,,,,,,,,,,,,,,,,,,,,,,,,,,,,,,,,,,,,,,,,,,,,,,,,,,,
1738703663.949159,1738703663.949563,79.000000,0.000000,3938.846191,3726.153809,4250.512695,4191.538574,4132.692383,4289.230957,4195.641113,4404.487305,4331.666504,4277.051270,4336.666504,4396.282227,4156.538574,4248.717773,5688.000000,2.000000,43.000000,,,,0.000000,4.000000,4.000000,0.000000,4.000000,1.000000,0.000000,0.000000,0.000000,0.000000,0.000000,4.000000,2.000000,4.000000,4.000000,0.000000,,,,,,,,,,,,,,,,,692.075562,67.037445,32.845417,5.999977,4.265545,956.096008,82.602921,33.683918,6.556304,5.310676,0.945334,0.517394,0.281201,0.144615,0.063404,190.853027,29.065960,31.068022,6.918220,3.359321,36.676601,9.831304,9.605639,1.929939,1.761070,1.031440,0.174518,0.143374,0.063486,0.041711,8.188005,5.302706,5.111440,1.820366,0.777241,0.071401,0.108952,0.043406,0.021883,0.026744,0.083646,0.069713,0.022266,0.034029,0.035215,0.154717,0.021854,0.046512,0.029013,0.039394,211.021713,20.071207,9.503570,2.174037,1.981609,8.032473,1.414882,1.075898,0.173283,0.244229,1007.128601,73.795319,34.225796,5.931763,4.652847,593.314758,61.989330,28.851360,4.938909,4.069984
1738703663.956967,1738703663.957372,80.000000,0.000000,3955.128174,3722.307617,4252.179688,4183.589844,4125.000000,4286.538574,4213.846191,4404.615234,4331.153809,4277.051270,4361.666504,4397.051270,4201.666504,4272.948730,3847.000000,2.000000,43.000000,,,,0.000000,4.000000,4.000000,0.000000,4.000000,1.000000,0.000000,0.000000,0.000000,0.000000,0.000000,4.000000,2.000000,4.000000,4.000000,0.000000,,,,,,,,,,,,,,,,,,,,,,,,,,,,,,,,,,,,,,,,,,,,,,,,,,,,,,,,,,,,,,,,,,,,,,,,,,,,,,,,,,,,,,
1738703663.964776,1738703663.965280,81.000000,0.000000,3969.615479,3736.281982,4248.461426,4172.179688,4135.769043,4287.948730,4237.436035,4404.871582,4333.205078,4279.230957,4360.897461,4397.563965,4215.641113,4289.358887,728.000000,2.000000,43.000000,,,,0.000000,4.000000,4.000000,0.000000,4.000000,1.000000,0.000000,0.000000,0.000000,0.000000,0.000000,4.000000,2.000000,4.000000,4.000000,0.000000,,,,,,,,,,,,,,,,,,,,,,,,,,,,,,,,,,,,,,,,,,,,,,,,,,,,,,,,,,,,,,,,,,,,,,,,,,,,,,,,,,,,,,
1738703663.972584,1738703663.973089,82.000000,0.000000,3984.871826,3772.307617,4244.743652,4185.897461,4141.666504,4289.487305,4234.358887,4403.717773,4331.666504,4281.666504,4360.897461,4398.077148,4213.846191,4295.769043,6087.000000,2.000000,43.000000,,,,0.000000,4.000000,4.000000,0.000000,4.000000,1.000000,0.000000,0.000000,0.000000,0.000000,0.000000,4.000000,2.000000,4.000000,4.000000,0.000000,,,,,,,,,,,,,,,,,,,,,,,,,,,,,,,,,,,,,,,,,,,,,,,,,,,,,,,,,,,,,,,,,,,,,,,,,,,,,,,,,,,,,,
1738703663.980392,1738703663.980897,83.000000,0.000000,4022.564209,3810.384521,4248.205078,4234.871582,4129.487305,4287.948730,4232.051270,4404.230957,4330.512695,4280.897461,4394.743652,4402.820313,4266.794922,4333.589844,5688.000000,2.000000,43.000000,,,,0.000000,4.000000,4.000000,0.000000,4.000000,1.000000,0.000000,0.000000,0.000000,0.000000,0.000000,4.000000,2.000000,4.000000,4.000000,0.000000,,,,,,,,,,,,,,,,,,,,,,,,,,,,,,,,,,,,,,,,,,,,,,,,,,,,,,,,,,,,,,,,,,,,,,,,,,,,,,,,,,,,,,
1738703663.988201,1738703663.988606,84.000000,0.000000,4050.897461,3835.641113,4250.256348,4252.051270,4138.077148,4288.461426,4242.563965,4407.307617,4331.794922,4280.000000,4397.692383,4401.922852,4298.589844,4357.948730,3847.000000,2.000000,43.000000,,,,0.000000,4.000000,4.000000,0.000000,4.000000,1.000000,0.000000,0.000000,0.000000,0.000000,0.000000,4.000000,2.000000,4.000000,4.000000,0.000000,,,,,,,,,,,,,,,,,,,,,,,,,,,,,,,,,,,,,,,,,,,,,,,,,,,,,,,,,,,,,,,,,,,,,,,,,,,,,,,,,,,,,,
1738703663.996009,1738703663.996414,85.000000,0.000000,4038.076904,3853.974365,4248.589844,4229.102539,4156.025879,4288.461426,4256.538574,4403.717773,4332.051270,4282.307617,4364.615234,4397.307617,4255.512695,4328.974121,728.000000,2.000000,43.000000,,,,0.000000,4.000000,4.000000,0.000000,4.000000,1.000000,0.000000,0.000000,0.000000,0.000000,0.000000,4.000000,2.000000,4.000000,4.000000,0.000000,,,,,,,,,,,,,,,,,,,,,,,,,,,,,,,,,,,,,,,,,,,,,,,,,,,,,,,,,,,,,,,,,,,,,,,,,,,,,,,,,,,,,,
1738703664.003817,1738703664.004122,86.000000,0.000000,4023.718018,3865.384521,4243.846191,4239.615234,4145.256348,4288.333496,4265.641113,4399.871582,4331.025879,4281.025879,4366.538574,4393.846191,4232.307617,4306.538574,6087.000000,2.000000,43.000000,,,,0.000000,4.000000,4.000000,0.000000,4.000000,1.000000,0.000000,0.000000,0.000000,0.000000,0.000000,4.000000,2.000000,4.000000,4.000000,0.000000,,,,,,,,,,,,,,,,,,,,,,,,,,,,,,,,,,,,,,,,,,,,,,,,,,,,,,,,,,,,,,,,,,,,,,,,,,,,,,,,,,,,,,
1738703664.011625,1738703664.012031,87.000000,0.000000,4033.974365,3858.846191,4246.025879,4258.589844,4130.512695,4289.358887,4261.410156,4401.538574,4332.179688,4277.692383,4384.615234,4397.179688,4258.589844,4319.743652,5688.000000,2.000000,43.000000,,,,0.000000,4.000000,4.000000,0.000000,4.000000,1.000000,0.000000,0.000000,0.000000,0.000000,0.000000,4.000000,2.000000,4.000000,4.000000,0.000000,,,,,,,,,,,,,,,,,,,,,,,,,,,,,,,,,,,,,,,,,,,,,,,,,,,,,,,,,,,,,,,,,,,,,,,,,,,,,,,,,,,,,,
1738703664.019434,1738703664.019839,88.000000,0.000000,4048.076904,3869.102539,4245.641113,4243.461426,4133.974121,4288.461426,4258.717773,4400.897461,4334.615234,4279.487305,4376.538574,4397.436035,4265.000000,4327.820313,3847.000000,2.000000,43.000000,,,,0.000000,4.000000,4.000000,0.000000,4.000000,1.000000,0.000000,0.000000,0.000000,0.000000,0.000000,4.000000,2.000000,4.000000,4.000000,0.000000,,,,,,,,,,,,,,,,,,,,,,,,,,,,,,,,,,,,,,,,,,,,,,,,,,,,,,,,,,,,,,,,,,,,,,,,,,,,,,,,,,,,,,
1738703664.027242,1738703664.027747,89.000000,0.000000,4050.256348,3890.128174,4246.794922,4228.717773,4140.641113,4287.563965,4261.410156,4399.358887,4332.179688,4281.410156,4368.461426,4394.871582,4248.333496,4322.820313,728.000000,2.000000,43.000000,,,,0.000000,4.000000,4.000000,0.000000,4.000000,1.000000,0.000000,0.000000,0.000000,0.000000,0.000000,4.000000,2.000000,4.000000,4.000000,0.000000,,,,,,,,,,,,,,,,,,,,,,,,,,,,,,,,,,,,,,,,,,,,,,,,,,,,,,,,,,,,,,,,,,,,,,,,,,,,,,,,,,,,,,
1738703664.035050,1738703664.035556,90.000000,0.000000,4056.923096,3890.000000,4245.512695,4224.871582,4141.153809,4289.871582,4259.487305,4403.717773,4328.333496,4279.871582,4377.179688,4396.538574,4263.846191,4334.871582,6087.000000,2.000000,43.000000,,,,0.000000,4.000000,4.000000,0.000000,4.000000,1.000000,0.000000,0.000000,0.000000,0.000000,0.000000,4.000000,2.000000,4.000000,4.000000,0.000000,,,,,,,,,,,,,,,,,,,,,,,,,,,,,,,,,,,,,,,,,,,,,,,,,,,,,,,,,,,,,,,,,,,,,,,,,,,,,,,,,,,,,,
1738703664.042858,1738703664.043464,91.000000,0.000000,4080.512939,3900.000000,4246.794922,4220.256348,4138.077148,4290.256348,4262.820313,4406.666504,4327.436035,4280.512695,4387.692383,4404.102539,4300.000000,4353.461426,5688.000000,2.000000,43.000000,,,,0.000000,4.000000,4.000000,0.000000,4.000000,1.000000,0.000000,0.000000,0.000000,0.000000,0.000000,4.000000,2.000000,4.000000,4.000000,0.000000,,,,,,,,,,,,,,,,,,,,,,,,,,,,,,,,,,,,,,,,,,,,,,,,,,,,,,,,,,,,,,,,,,,,,,,,,,,,,,,,,,,,,,
1738703664.050667,1738703664.051273,92.000000,0.000000,4094.871826,3923.461426,4243.077148,4213.974121,4139.487305,4287.563965,4275.256348,4404.487305,4329.487305,4282.307617,4391.282227,4403.717773,4302.179688,4354.358887,3847.000000,2.000000,43.000000,,,,0.000000,4.000000,4.000000,0.000000,4.000000,1.000000,0.000000,0.000000,0.000000,0.000000,0.000000,4.000000,2.000000,4.000000,4.000000,0.000000,,,,,,,,,,,,,,,,,,,,,,,,,,,,,,,,,,,,,,,,,,,,,,,,,,,,,,,,,,,,,,,,,,,,,,,,,,,,,,,,,,,,,,
1738703664.058475,1738703664.059181,93.000000,0.000000,4085.641113,3922.948730,4245.000000,4205.769043,4146.282227,4288.333496,4279.743652,4403.974121,4333.589844,4281.282227,4386.922852,4398.461426,4281.282227,4346.153809,728.000000,2.000000,43.000000,,,,0.000000,4.000000,4.000000,0.000000,4.000000,1.000000,0.000000,0.000000,0.000000,0.000000,0.000000,4.000000,2.000000,4.000000,4.000000,0.000000,,,,,,,,,,,,,,,,,,,,,,,,,,,,,,,,,,,,,,,,,,,,,,,,,,,,,,,,,,,,,,,,,,,,,,,,,,,,,,,,,,,,,,
1738703664.066283,1738703664.066989,94.000000,0.000000,4092.051270,3927.820557,4248.461426,4218.077148,4133.717773,4290.256348,4275.897461,4402.820313,4335.256348,4280.897461,4394.358887,4401.282227,4301.282227,4362.307617,6087.000000,2.000000,43.000000,,,,0.000000,4.000000,4.000000,0.000000,4.000000,1.000000,0.000000,0.000000,0.000000,0.000000,0.000000,4.000000,2.000000,4.000000,4.000000,0.000000,,,,,,,,,,,,,,,,,,,,,,,,,,,,,,,,,,,,,,,,,,,,,,,,,,,,,,,,,,,,,,,,,,,,,,,,,,,,,,,,,,,,,,
1738703664.074092,1738703664.074898,95.000000,0.000000,4106.410156,3949.358887,4252.820313,4227.563965,4123.461426,4290.512695,4275.897461,4399.358887,4331.410156,4280.000000,4398.205078,4403.077148,4320.000000,4372.820313,5688.000000,2.000000,43.000000,,,,0.000000,4.000000,4.000000,0.000000,4.000000,1.000000,0.000000,0.000000,0.000000,0.000000,0.000000,4.000000,2.000000,4.000000,4.000000,0.000000,,,,,,,,,,,,,,,,,481.479523,56.374680,35.701008,5.379360,3.553210,697.144226,70.117867,36.900730,6.098037,4.566755,1.146214,0.565838,0.298443,0.147167,0.073425,168.158508,27.331509,29.961943,6.677651,3.245056,26.783783,7.590515,7.459264,1.567238,1.500257,0.873293,0.163245,0.127942,0.055537,0.041207,9.007673,5.662692,5.350183,1.984905,0.751813,0.106051,0.110859,0.055880,0.022274,0.028353,0.109923,0.082476,0.020067,0.034468,0.031992,0.127896,0.023210,0.049486,0.031336,0.041286,153.714188,16.389944,10.260180,1.916254,1.693820,5.880678,1.249247,1.182067,0.146007,0.213392,729.111206,60.206470,36.761921,5.601528,3.925278,416.222321,50.637615,31.685492,4.554857,3.407874
1738703664.081900,1738703664.082706,96.000000,0.000000,4078.589844,3917.820557,4255.128418,4182.179688,4145.769043,4289.871582,4276.538574,4401.794922,4328.974121,4278.205078,4377.051270,4396.282227,4286.410156,4340.000000,3847.000000,2.000000,43.000000,,,,0.000000,4.000000,4.000000,0.000000,4.000000,1.000000,0.000000,0.000000,0.000000,0.000000,0.000000,4.000000,2.000000,4.000000,4.000000,0.000000,,,,,,,,,,,,,,,,,,,,,,,,,,,,,,,,,,,,,,,,,,,,,,,,,,,,,,,,,,,,,,,,,,,,,,,,,,,,,,,,,,,,,,
1738703664.089708,1738703664.090615,97.000000,0.000000,4053.718018,3880.769287,4256.666504,4156.922852,4122.436035,4292.948730,4281.922852,4406.666504,4330.897461,4279.230957,4369.487305,4393.333496,4270.641113,4320.256348,728.000000,2.000000,43.000000,,,,0.000000,4.000000,4.000000,0.000000,4.000000,1.000000,0.000000,0.000000,0.000000,0.000000,0.000000,4.000000,2.000000,4.000000,4.000000,0.000000,,,,,,,,,,,,,,,,,,,,,,,,,,,,,,,,,,,,,,,,,,,,,,,,,,,,,,,,,,,,,,,,,,,,,,,,,,,,,,,,,,,,,,
1738703664.097516,1738703664.098523,98.000000,0.000000,4068.846191,3909.871826,4253.461426,4183.717773,4052.179443,4296.153809,4289.871582,4405.769043,4332.051270,4281.025879,4377.307617,4395.000000,4278.333496,4329.487305,6087.000000,2.000000,43.000000,,,,0.000000,4.000000,4.000000,0.000000,4.000000,1.000000,0.000000,0.000000,0.000000,0.000000,0.000000,4.000000,2.000000,4.000000,4.000000,0.000000,,,,,,,,,,,,,,,,,,,,,,,,,,,,,,,,,,,,,,,,,,,,,,,,,,,,,,,,,,,,,,,,,,,,,,,,,,,,,,,,,,,,,,
1738703664.105325,1738703664.106331,99.000000,0.000000,4078.205078,3929.358887,4249.871582,4175.256348,4044.743652,4295.128418,4292.948730,4402.692383,4333.205078,4280.769043,4373.461426,4392.692383,4268.846191,4330.128418,5688.000000,2.000000,43.000000,,,,0.000000,4.000000,4.000000,0.000000,4.000000,1.000000,0.000000,0.000000,0.000000,0.000000,0.000000,4.000000,2.000000,4.000000,4.000000,0.000000,,,,,,,,,,,,,,,,,,,,,,,,,,,,,,,,,,,,,,,,,,,,,,,,,,,,,,,,,,,,,,,,,,,,,,,,,,,,,,,,,,,,,,
1738703664.113133,1738703664.114140,100.000000,0.000000,4086.923096,3918.333252,4254.615234,4160.512695,4084.871826,4294.358887,4290.128418,4402.820313,4333.461426,4280.384766,4382.692383,4394.487305,4281.410156,4339.615234,3847.000000,2.000000,43.000000,,,,0.000000,4.000000,4.000000,0.000000,4.000000,1.000000,0.000000,0.000000,0.000000,0.000000,0.000000,4.000000,2.000000,4.000000,4.000000,0.000000,,,,,,,,,,,,,,,,,,,,,,,,,,,,,,,,,,,,,,,,,,,,,,,,,,,,,,,,,,,,,,,,,,,,,,,,,,,,,,,,,,,,,,
1738703664.120941,1738703664.121848,101.000000,0.000000,4096.153809,3915.512939,4251.025879,4175.128418,4086.923096,4294.871582,4290.000000,4406.410156,4330.897461,4280.769043,4392.179688,4393.589844,4301.666504,4351.025879,728.000000,2.000000,43.000000,,,,0.000000,4.000000,4.000000,0.000000,4.000000,1.000000,0.000000,0.000000,0.000000,0.000000,0.000000,4.000000,2.000000,4.000000,4.000000,0.000000,,,,,,,,,,,,,,,,,,,,,,,,,,,,,,,,,,,,,,,,,,,,,,,,,,,,,,,,,,,,,,,,,,,,,,,,,,,,,,,,,,,,,,
1738703664.128749,1738703664.129657,102.000000,0.000000,4076.538574,3918.589844,4243.846191,4163.461426,4074.743652,4291.794922,4291.410156,4408.589844,4332.307617,4280.000000,4368.333496,4390.384766,4270.897461,4326.410156,6087.000000,2.000000,43.000000,,,,0.000000,4.000000,4.000000,0.000000,4.000000,1.000000,0.000000,0.000000,0.000000,0.000000,0.000000,4.000000,2.000000,4.000000,4.000000,0.000000,,,,,,,,,,,,,,,,,,,,,,,,,,,,,,,,,,,,,,,,,,,,,,,,,,,,,,,,,,,,,,,,,,,,,,,,,,,,,,,,,,,,,,
1738703664.136557,1738703664.137365,103.000000,0.000000,4067.692383,3924.230713,4243.077148,4138.077148,4086.025635,4289.487305,4293.589844,4406.794922,4335.256348,4278.077148,4355.256348,4389.487305,4240.128418,4308.077148,5688.000000,2.000000,43.000000,,,,0.000000,4.000000,4.000000,0.000000,4.000000,1.000000,0.000000,0.000000,0.000000,0.000000,0.000000,4.000000,2.000000,4.000000,4.000000,0.000000,,,,,,,,,,,,,,,,,,,,,,,,,,,,,,,,,,,,,,,,,,,,,,,,,,,,,,,,,,,,,,,,,,,,,,,,,,,,,,,,,,,,,,
1738703664.144366,1738703664.145174,104.000000,0.000000,4079.358887,3910.256348,4248.333496,4151.410156,4091.410156,4289.743652,4292.820313,4403.846191,4330.000000,4278.077148,4376.025879,4392.307617,4260.897461,4326.922852,3847.000000,2.000000,43.000000,,,,0.000000,4.000000,4.000000,0.000000,4.000000,1.000000,0.000000,0.000000,0.000000,0.000000,0.000000,4.000000,2.000000,4.000000,4.000000,0.000000,,,,,,,,,,,,,,,,,,,,,,,,,,,,,,,,,,,,,,,,,,,,,,,,,,,,,,,,,,,,,,,,,,,,,,,,,,,,,,,,,,,,,,
1738703664.152174,1738703664.152882,105.000000,0.000000,4046.153809,3867.307617,4244.871582,4163.974121,4089.615479,4288.717773,4287.692383,4403.333496,4324.487305,4279.358887,4365.128418,4386.666504,4250.000000,4304.230957,728.000000,2.000000,43.000000,,,,0.000000,4.000000,4.000000,0.000000,4.000000,1.000000,0.000000,0.000000,0.000000,0.000000,0.000000,4.000000,2.000000,4.000000,4.000000,0.000000,,,,,,,,,,,,,,,,,,,,,,,,,,,,,,,,,,,,,,,,,,,,,,,,,,,,,,,,,,,,,,,,,,,,,,,,,,,,,,,,,,,,,,
1738703664.159982,1738703664.160791,106.000000,0.000000,4004.871826,3849.615479,4247.307617,4153.461426,4090.769287,4288.205078,4287.948730,4405.769043,4329.102539,4280.000000,4330.256348,4384.871582,4196.794922,4254.743652,6087.000000,2.000000,43.000000,,,,0.000000,4.000000,4.000000,0.000000,4.000000,1.000000,0.000000,0.000000,0.000000,0.000000,0.000000,4.000000,2.000000,4.000000,4.000000,0.000000,,,,,,,,,,,,,,,,,,,,,,,,,,,,,,,,,,,,,,,,,,,,,,,,,,,,,,,,,,,,,,,,,,,,,,,,,,,,,,,,,,,,,,
1738703664.167791,1738703664.168599,107.000000,0.000000,4027.051270,3887.564209,4249.230957,4164.230957,4085.897461,4288.846191,4291.153809,4406.794922,4335.000000,4279.102539,4333.333496,4387.692383,4186.538574,4258.846191,5688.000000,2.000000,43.000000,,,,0.000000,4.000000,4.000000,0.000000,4.000000,1.000000,0.000000,0.000000,0.000000,0.000000,0.000000,4.000000,2.000000,4.000000,4.000000,0.000000,,,,,,,,,,,,,,,,,,,,,,,,,,,,,,,,,,,,,,,,,,,,,,,,,,,,,,,,,,,,,,,,,,,,,,,,,,,,,,,,,,,,,,
1738703664.175599,1738703664.176408,108.000000,0.000000,4049.743652,3890.256348,4252.820313,4169.487305,4072.948730,4289.871582,4290.384766,4404.487305,4332.820313,4278.205078,4357.436035,4390.000000,4217.179688,4286.538574,3847.000000,2.000000,43.000000,,,,0.000000,4.000000,4.000000,0.000000,4.000000,1.000000,0.000000,0.000000,0.000000,0.000000,0.000000,4.000000,2.000000,4.000000,4.000000,0.000000,,,,,,,,,,,,,,,,,,,,,,,,,,,,,,,,,,,,,,,,,,,,,,,,,,,,,,,,,,,,,,,,,,,,,,,,,,,,,,,,,,,,,,
1738703664.183407,1738703664.184116,109.000000,0.000000,4030.000000,3845.256348,4252.051270,4143.717773,4074.871826,4291.282227,4287.820313,4403.077148,4330.128418,4278.589844,4358.589844,4390.128418,4226.025879,4285.000000,728.000000,2.000000,43.000000,,,,0.000000,4.000000,4.000000,0.000000,4.000000,1.000000,0.000000,0.000000,0.000000,0.000000,0.000000,4.000000,2.000000,4.000000,4.000000,0.000000,,,,,,,,,,,,,,,,,,,,,,,,,,,,,,,,,,,,,,,,,,,,,,,,,,,,,,,,,,,,,,,,,,,,,,,,,,,,,,,,,,,,,,
1738703664.191215,1738703664.192024,110.000000,0.000000,4025.897461,3854.871826,4251.922852,4139.615234,4100.641113,4290.897461,4289.102539,4404.871582,4332.179688,4280.256348,4343.333496,4390.000000,4205.256348,4272.820313,6087.000000,2.000000,43.000000,,,,0.000000,4.000000,4.000000,0.000000,4.000000,1.000000,0.000000,0.000000,0.000000,0.000000,0.000000,4.000000,2.000000,4.000000,4.000000,0.000000,,,,,,,,,,,,,,,,,,,,,,,,,,,,,,,,,,,,,,,,,,,,,,,,,,,,,,,,,,,,,,,,,,,,,,,,,,,,,,,,,,,,,,
1738703664.199024,1738703664.199833,111.000000,0.000000,4041.410156,3900.641113,4250.000000,4166.282227,4097.692383,4287.692383,4289.102539,4403.333496,4333.077148,4282.051270,4341.025879,4388.205078,4198.974121,4271.666504,5688.000000,2.000000,43.000000,,,,0.000000,4.000000,4.000000,0.000000,4.000000,1.000000,0.000000,0.000000,0.000000,0.000000,0.000000,4.000000,2.000000,4.000000,4.000000,0.000000,1.000000,0.000000,0.000000,0.000000,0.000000,0.000000,0.000000,0.000000,0.000000,0.000000,0.000000,0.000000,0.000000,2.000000,0.000000,0.000000,293.110352,44.385094,34.903664,4.606239,2.762235,445.315247,56.464924,36.431915,5.440799,3.763470,1.301134,0.580848,0.297113,0.141395,0.084135,133.961304,25.061594,27.260908,6.355015,3.190256,16.899372,5.122430,5.010847,1.176590,1.176031,0.659409,0.140990,0.106724,0.044863,0.039496,9.074099,5.415256,5.009223,1.899549,0.672038,0.145425,0.102034,0.066904,0.022388,0.031258,0.134820,0.090936,0.018788,0.032870,0.028472,0.115532,0.027162,0.050712,0.037868,0.051673,97.635147,12.551068,10.118843,1.672437,1.381479,4.051428,1.043369,1.178043,0.125657,0.180152,456.869110,46.618244,35.594349,5.184195,3.124696,255.554962,38.826485,31.275654,4.055600,2.675110
1738703664.206832,1738703664.207741,112.000000,0.000000,4029.230713,3888.076904,4250.000000,4166.410156,4069.487061,4287.051270,4288.333496,4399.743652,4331.410156,4281.153809,4347.820313,4385.256348,4204.615234,4263.205078,3847.000000,2.000000,43.000000,,,,0.000000,4.000000,4.000000,0.000000,4.000000,1.000000,0.000000,0.000000,0.000000,0.000000,0.000000,4.000000,2.000000,4.000000,4.000000,0.000000,,,,,,,,,,,,,,,,,,,,,,,,,,,,,,,,,,,,,,,,,,,,,,,,,,,,,,,,,,,,,,,,,,,,,,,,,,,,,,,,,,,,,,
1738703664.214640,1738703664.215650,113.000000,0.000000,4002.820557,3838.461426,4249.743652,4132.563965,4072.948730,4287.692383,4288.589844,4401.538574,4332.307617,4277.307617,4343.846191,4382.948730,4199.615234,4251.410156,728.000000,2.000000,43.000000,,,,0.000000,4.000000,4.000000,0.000000,4.000000,1.000000,0.000000,0.000000,0.000000,0.000000,0.000000,4.000000,2.000000,4.000000,4.000000,0.000000,,,,,,,,,,,,,,,,,,,,,,,,,,,,,,,,,,,,,,,,,,,,,,,,,,,,,,,,,,,,,,,,,,,,,,,,,,,,,,,,,,,,,,
1738703664.222448,1738703664.223458,114.000000,0.000000,4000.897461,3839.743652,4247.179688,4115.128418,4097.179688,4287.051270,4289.615234,4406.538574,4333.333496,4276.410156,4331.282227,4379.743652,4183.589844,4246.282227,6087.000000,2.000000,43.000000,,,,0.000000,4.000000,4.000000,0.000000,4.000000,1.000000,0.000000,0.000000,0.000000,0.000000,0.000000,4.000000,2.000000,4.000000,4.000000,0.000000,,,,,,,,,,,,,,,,,,,,,,,,,,,,,,,,,,,,,,,,,,,,,,,,,,,,,,,,,,,,,,,,,,,,,,,,,,,,,,,,,,,,,,
1738703664.230257,1738703664.231267,115.000000,0.000000,4024.615479,3879.743652,4246.410156,4128.589844,4099.743652,4285.641113,4288.717773,4405.256348,4333.461426,4277.436035,4337.051270,4385.512695,4188.205078,4254.743652,5688.000000,2.000000,43.000000,,,,0.000000,4.000000,4.000000,0.000000,4.000000,1.000000,0.000000,0.000000,0.000000,0.000000,0.000000,4.000000,2.000000,4.000000,4.000000,0.000000,,,,,,,,,,,,,,,,,,,,,,,,,,,,,,,,,,,,,,,,,,,,,,,,,,,,,,,,,,,,,,,,,,,,,,,,,,,,,,,,,,,,,,
1738703664.238065,1738703664.239076,116.000000,0.000000,4045.641113,3903.333252,4245.000000,4161.794922,4082.564209,4285.897461,4289.230957,4400.384766,4332.179688,4281.025879,4352.948730,4388.333496,4214.102539,4274.871582,3847.000000,2.000000,43.000000,,,,0.000000,4.000000,4.000000,0.000000,4.000000,1.000000,0.000000,0.000000,0.000000,0.000000,0.000000,4.000000,2.000000,4.000000,4.000000,0.000000,,,,,,,,,,,,,,,,,,,,,,,,,,,,,,,,,,,,,,,,,,,,,,,,,,,,,,,,,,,,,,,,,,,,,,,,,,,,,,,,,,,,,,
1738703664.245873,1738703664.246784,117.000000,0.000000,4036.666748,3890.641113,4247.436035,4155.512695,4075.641113,4287.179688,4289.358887,4401.922852,4331.410156,4280.128418,4344.615234,4386.794922,4202.563965,4268.333496,728.000000,2.000000,43.000000,,,,0.000000,4.000000,4.000000,0.000000,4.000000,1.000000,0.000000,0.000000,0.000000,0.000000,0.000000,4.000000,2.000000,4.000000,4.000000,0.000000,,,,,,,,,,,,,,,,,,,,,,,,,,,,,,,,,,,,,,,,,,,,,,,,,,,,,,,,,,,,,,,,,,,,,,,,,,,,,,,,,,,,,,
1738703664.253682,1738703664.254692,118.000000,0.000000,4002.435791,3853.205078,4245.128418,4108.589844,4083.205078,4287.307617,4285.256348,4406.410156,4331.794922,4270.641113,4328.205078,4382.436035,4163.077148,4233.846191,6087.000000,2.000000,43.000000,,,,0.000000,4.000000,4.000000,0.000000,4.000000,1.000000,0.000000,0.000000,0.000000,0.000000,0.000000,4.000000,2.000000,4.000000,4.000000,0.000000,,,,,,,,,,,,,,,,,,,,,,,,,,,,,,,,,,,,,,,,,,,,,,,,,,,,,,,,,,,,,,,,,,,,,,,,,,,,,,,,,,,,,,
1738703664.261490,1738703664.262501,119.000000,0.000000,3981.666748,3837.179443,4246.538574,4123.846191,4091.538574,4283.717773,4283.333496,4403.461426,4330.897461,4268.205078,4323.205078,4378.846191,4146.025879,4212.179688,5688.000000,2.000000,43.000000,,,,0.000000,4.000000,4.000000,0.000000,4.000000,1.000000,0.000000,0.000000,0.000000,0.000000,0.000000,4.000000,2.000000,4.000000,4.000000,0.000000,,,,,,,,,,,,,,,,,,,,,,,,,,,,,,,,,,,,,,,,,,,,,,,,,,,,,,,,,,,,,,,,,,,,,,,,,,,,,,,,,,,,,,
1738703664.269298,1738703664.270409,120.000000,0.000000,3988.589844,3852.692383,4247.179688,4200.769043,4087.307617,4282.948730,4285.512695,4402.820313,4331.538574,4276.666504,4321.410156,4376.666504,4150.897461,4215.512695,3847.000000,2.000000,43.000000,,,,0.000000,4.000000,4.000000,0.000000,4.000000,1.000000,0.000000,0.000000,0.000000,0.000000,0.000000,4.000000,2.000000,4.000000,4.000000,0.000000,,,,,,,,,,,,,,,,,,,,,,,,,,,,,,,,,,,,,,,,,,,,,,,,,,,,,,,,,,,,,,,,,,,,,,,,,,,,,,,,,,,,,,
1738703664.277106,1738703664.278218,121.000000,0.000000,3995.641113,3861.794922,4247.307617,4237.051270,4086.666748,4286.922852,4282.563965,4405.256348,4332.436035,4281.410156,4321.538574,4380.512695,4150.384766,4218.461426,728.000000,2.000000,43.000000,,,,0.000000,4.000000,4.000000,0.000000,4.000000,1.000000,0.000000,0.000000,0.000000,0.000000,0.000000,4.000000,2.000000,4.000000,4.000000,0.000000,,,,,,,,,,,,,,,,,,,,,,,,,,,,,,,,,,,,,,,,,,,,,,,,,,,,,,,,,,,,,,,,,,,,,,,,,,,,,,,,,,,,,,
1738703664.284915,1738703664.285926,122.000000,0.000000,3982.435791,3850.128174,4243.974121,4205.641113,4095.128174,4282.820313,4277.692383,4401.666504,4332.820313,4278.846191,4316.410156,4376.282227,4132.948730,4207.820313,6087.000000,2.000000,43.000000,,,,0.000000,4.000000,4.000000,0.000000,4.000000,1.000000,0.000000,0.000000,0.000000,0.000000,0.000000,4.000000,2.000000,4.000000,4.000000,0.000000,,,,,,,,,,,,,,,,,,,,,,,,,,,,,,,,,,,,,,,,,,,,,,,,,,,,,,,,,,,,,,,,,,,,,,,,,,,,,,,,,,,,,,
1738703664.292723,1738703664.293735,123.000000,0.000000,3972.307617,3843.205078,4249.871582,4190.000000,4087.179443,4278.717773,4280.769043,4399.615234,4334.615234,4274.487305,4311.153809,4374.487305,4127.563965,4202.948730,5688.000000,2.000000,43.000000,,,,0.000000,4.000000,4.000000,0.000000,4.000000,1.000000,0.000000,0.000000,0.000000,0.000000,0.000000,4.000000,2.000000,4.000000,4.000000,0.000000,,,,,,,,,,,,,,,,,,,,,,,,,,,,,,,,,,,,,,,,,,,,,,,,,,,,,,,,,,,,,,,,,,,,,,,,,,,,,,,,,,,,,,
1738703664.300531,1738703664.301443,124.000000,0.000000,3980.769287,3850.256348,4251.025879,4216.025879,4079.230713,4279.230957,4283.333496,4402.948730,4333.333496,4265.000000,4318.717773,4380.000000,4145.128418,4211.282227,3847.000000,2.000000,43.000000,,,,0.000000,4.000000,4.000000,0.000000,4.000000,1.000000,0.000000,0.000000,0.000000,0.000000,0.000000,4.000000,2.000000,4.000000,4.000000,0.000000,,,,,,,,,,,,,,,,,,,,,,,,,,,,,,,,,,,,,,,,,,,,,,,,,,,,,,,,,,,,,,,,,,,,,,,,,,,,,,,,,,,,,,
